Wavenumber	NESR 15.67 cm-1
17.97255	2.34222E-09
18.14537	2.30500E-09
18.31818	2.26886E-09
18.49099	2.23386E-09
18.66381	2.20003E-09
18.83662	2.16738E-09
19.00943	2.13592E-09
19.18225	2.10567E-09
19.35506	2.07661E-09
19.52787	2.04874E-09
19.70068	2.02206E-09
19.87350	1.99654E-09
20.04631	1.97216E-09
20.21912	1.94891E-09
20.39194	1.92676E-09
20.56475	1.90569E-09
20.73756	1.88569E-09
20.91038	1.86671E-09
21.08319	1.84874E-09
21.25600	1.83174E-09
21.42881	1.81567E-09
21.60163	1.80054E-09
21.77444	1.78630E-09
21.94725	1.77293E-09
22.12007	1.76039E-09
22.29288	1.74866E-09
22.46569	1.73771E-09
22.63851	1.72752E-09
22.81132	1.71804E-09
22.98413	1.70928E-09
23.15695	1.70120E-09
23.32976	1.69376E-09
23.50257	1.68695E-09
23.67538	1.68075E-09
23.84820	1.67510E-09
24.02101	1.67002E-09
24.19382	1.66546E-09
24.36664	1.66139E-09
24.53945	1.65782E-09
24.71226	1.65469E-09
24.88508	1.65198E-09
25.05789	1.64969E-09
25.23070	1.64777E-09
25.40351	1.64621E-09
25.57633	1.64498E-09
25.74914	1.64407E-09
25.92195	1.64344E-09
26.09477	1.64309E-09
26.26758	1.64297E-09
26.44039	1.64307E-09
26.61321	1.64337E-09
26.78602	1.64384E-09
26.95883	1.64447E-09
27.13164	1.64523E-09
27.30446	1.64609E-09
27.47727	1.64705E-09
27.65008	1.64807E-09
27.82290	1.64914E-09
27.99571	1.65024E-09
28.16852	1.65134E-09
28.34134	1.65244E-09
28.51415	1.65351E-09
28.68696	1.65453E-09
28.85977	1.65550E-09
29.03259	1.65638E-09
29.20540	1.65718E-09
29.37821	1.65788E-09
29.55103	1.65846E-09
29.72384	1.65890E-09
29.89665	1.65922E-09
30.06947	1.65939E-09
30.24228	1.65940E-09
30.41509	1.65924E-09
30.58790	1.65892E-09
30.76072	1.65843E-09
30.93353	1.65777E-09
31.10634	1.65691E-09
31.27916	1.65589E-09
31.45197	1.65468E-09
31.62478	1.65329E-09
31.79760	1.65172E-09
31.97041	1.64998E-09
32.14322	1.64807E-09
32.31604	1.64599E-09
32.48885	1.64376E-09
32.66166	1.64136E-09
32.83447	1.63881E-09
33.00729	1.63613E-09
33.18010	1.63332E-09
33.35291	1.63038E-09
33.52573	1.62733E-09
33.69854	1.62417E-09
33.87135	1.62093E-09
34.04417	1.61760E-09
34.21698	1.61418E-09
34.38979	1.61072E-09
34.56260	1.60720E-09
34.73542	1.60363E-09
34.90823	1.60003E-09
35.08104	1.59641E-09
35.25386	1.59279E-09
35.42667	1.58916E-09
35.59948	1.58554E-09
35.77230	1.58194E-09
35.94511	1.57837E-09
36.11792	1.57484E-09
36.29073	1.57135E-09
36.46355	1.56792E-09
36.63636	1.56455E-09
36.80917	1.56125E-09
36.98199	1.55804E-09
37.15480	1.55490E-09
37.32761	1.55185E-09
37.50043	1.54890E-09
37.67324	1.54605E-09
37.84605	1.54330E-09
38.01886	1.54067E-09
38.19168	1.53815E-09
38.36449	1.53575E-09
38.53730	1.53346E-09
38.71012	1.53130E-09
38.88293	1.52926E-09
39.05574	1.52735E-09
39.22856	1.52556E-09
39.40137	1.52390E-09
39.57418	1.52237E-09
39.74699	1.52096E-09
39.91981	1.51968E-09
40.09262	1.51853E-09
40.26543	1.51749E-09
40.43825	1.51657E-09
40.61106	1.51577E-09
40.78387	1.51509E-09
40.95669	1.51452E-09
41.12950	1.51406E-09
41.30231	1.51370E-09
41.47513	1.51345E-09
41.64794	1.51329E-09
41.82075	1.51323E-09
41.99356	1.51325E-09
42.16638	1.51335E-09
42.33919	1.51353E-09
42.51200	1.51378E-09
42.68482	1.51410E-09
42.85763	1.51448E-09
43.03044	1.51491E-09
43.20326	1.51540E-09
43.37607	1.51592E-09
43.54888	1.51649E-09
43.72169	1.51708E-09
43.89451	1.51770E-09
44.06732	1.51834E-09
44.24013	1.51899E-09
44.41295	1.51966E-09
44.58576	1.52033E-09
44.75857	1.52099E-09
44.93139	1.52165E-09
45.10420	1.52230E-09
45.27701	1.52293E-09
45.44982	1.52353E-09
45.62264	1.52412E-09
45.79545	1.52467E-09
45.96826	1.52520E-09
46.14108	1.52568E-09
46.31389	1.52613E-09
46.48670	1.52653E-09
46.65952	1.52689E-09
46.83233	1.52720E-09
47.00514	1.52747E-09
47.17795	1.52767E-09
47.35077	1.52784E-09
47.52358	1.52795E-09
47.69639	1.52801E-09
47.86921	1.52801E-09
48.04202	1.52796E-09
48.21483	1.52786E-09
48.38765	1.52770E-09
48.56046	1.52749E-09
48.73327	1.52724E-09
48.90608	1.52695E-09
49.07890	1.52659E-09
49.25171	1.52621E-09
49.42452	1.52577E-09
49.59734	1.52530E-09
49.77015	1.52479E-09
49.94296	1.52425E-09
50.11578	1.52368E-09
50.28859	1.52307E-09
50.46140	1.52245E-09
50.63422	1.52180E-09
50.80703	1.52113E-09
50.97984	1.52045E-09
51.15265	1.51976E-09
51.32547	1.51906E-09
51.49828	1.51836E-09
51.67109	1.51765E-09
51.84391	1.51696E-09
52.01672	1.51625E-09
52.18953	1.51557E-09
52.36235	1.51490E-09
52.53516	1.51424E-09
52.70797	1.51360E-09
52.88078	1.51298E-09
53.05360	1.51239E-09
53.22641	1.51183E-09
53.39922	1.51129E-09
53.57204	1.51079E-09
53.74485	1.51031E-09
53.91766	1.50988E-09
54.09048	1.50948E-09
54.26329	1.50912E-09
54.43610	1.50880E-09
54.60891	1.50853E-09
54.78173	1.50830E-09
54.95454	1.50810E-09
55.12735	1.50796E-09
55.30017	1.50786E-09
55.47298	1.50780E-09
55.64579	1.50779E-09
55.81861	1.50782E-09
55.99142	1.50790E-09
56.16423	1.50802E-09
56.33704	1.50819E-09
56.50986	1.50839E-09
56.68267	1.50863E-09
56.85548	1.50892E-09
57.02830	1.50924E-09
57.20111	1.50959E-09
57.37392	1.50998E-09
57.54674	1.51040E-09
57.71955	1.51086E-09
57.89236	1.51133E-09
58.06517	1.51184E-09
58.23799	1.51237E-09
58.41080	1.51291E-09
58.58361	1.51348E-09
58.75643	1.51405E-09
58.92924	1.51464E-09
59.10205	1.51524E-09
59.27487	1.51584E-09
59.44768	1.51645E-09
59.62049	1.51707E-09
59.79331	1.51767E-09
59.96612	1.51828E-09
60.13893	1.51887E-09
60.31174	1.51946E-09
60.48456	1.52003E-09
60.65737	1.52059E-09
60.83018	1.52113E-09
61.00300	1.52165E-09
61.17581	1.52215E-09
61.34862	1.52264E-09
61.52144	1.52309E-09
61.69425	1.52351E-09
61.86706	1.52391E-09
62.03987	1.52427E-09
62.21269	1.52461E-09
62.38550	1.52491E-09
62.55831	1.52519E-09
62.73113	1.52543E-09
62.90394	1.52562E-09
63.07675	1.52579E-09
63.24957	1.52593E-09
63.42238	1.52603E-09
63.59519	1.52610E-09
63.76800	1.52612E-09
63.94082	1.52612E-09
64.11363	1.52608E-09
64.28644	1.52602E-09
64.45926	1.52591E-09
64.63207	1.52578E-09
64.80488	1.52562E-09
64.97770	1.52543E-09
65.15051	1.52522E-09
65.32332	1.52498E-09
65.49613	1.52472E-09
65.66895	1.52444E-09
65.84176	1.52414E-09
66.01457	1.52381E-09
66.18739	1.52348E-09
66.36020	1.52313E-09
66.53301	1.52276E-09
66.70583	1.52239E-09
66.87864	1.52202E-09
67.05145	1.52163E-09
67.22426	1.52123E-09
67.39708	1.52084E-09
67.56989	1.52045E-09
67.74270	1.52006E-09
67.91552	1.51966E-09
68.08833	1.51929E-09
68.26114	1.51890E-09
68.43396	1.51854E-09
68.60677	1.51817E-09
68.77958	1.51783E-09
68.95240	1.51748E-09
69.12521	1.51716E-09
69.29802	1.51685E-09
69.47083	1.51655E-09
69.64365	1.51628E-09
69.81646	1.51602E-09
69.98927	1.51578E-09
70.16209	1.51555E-09
70.33490	1.51536E-09
70.50771	1.51517E-09
70.68053	1.51501E-09
70.85334	1.51487E-09
71.02615	1.51474E-09
71.19896	1.51463E-09
71.37178	1.51455E-09
71.54459	1.51448E-09
71.71740	1.51443E-09
71.89022	1.51440E-09
72.06303	1.51438E-09
72.23584	1.51439E-09
72.40866	1.51441E-09
72.58147	1.51444E-09
72.75428	1.51448E-09
72.92709	1.51453E-09
73.09991	1.51459E-09
73.27272	1.51467E-09
73.44553	1.51475E-09
73.61835	1.51484E-09
73.79116	1.51492E-09
73.96397	1.51501E-09
74.13679	1.51511E-09
74.30960	1.51520E-09
74.48241	1.51530E-09
74.65522	1.51539E-09
74.82804	1.51547E-09
75.00085	1.51554E-09
75.17366	1.51561E-09
75.34648	1.51566E-09
75.51929	1.51571E-09
75.69210	1.51574E-09
75.86492	1.51576E-09
76.03773	1.51575E-09
76.21054	1.51574E-09
76.38335	1.51570E-09
76.55617	1.51564E-09
76.72898	1.51556E-09
76.90179	1.51546E-09
77.07461	1.51533E-09
77.24742	1.51519E-09
77.42023	1.51501E-09
77.59305	1.51482E-09
77.76586	1.51459E-09
77.93867	1.51434E-09
78.11149	1.51407E-09
78.28430	1.51376E-09
78.45711	1.51343E-09
78.62992	1.51308E-09
78.80274	1.51269E-09
78.97555	1.51228E-09
79.14836	1.51186E-09
79.32118	1.51139E-09
79.49399	1.51091E-09
79.66680	1.51040E-09
79.83962	1.50987E-09
80.01243	1.50931E-09
80.18524	1.50874E-09
80.35805	1.50814E-09
80.53087	1.50753E-09
80.70368	1.50689E-09
80.87649	1.50625E-09
81.04931	1.50558E-09
81.22212	1.50491E-09
81.39493	1.50421E-09
81.56775	1.50350E-09
81.74056	1.50278E-09
81.91337	1.50206E-09
82.08618	1.50132E-09
82.25900	1.50057E-09
82.43181	1.49983E-09
82.60462	1.49908E-09
82.77744	1.49832E-09
82.95025	1.49757E-09
83.12306	1.49681E-09
83.29588	1.49605E-09
83.46869	1.49530E-09
83.64150	1.49455E-09
83.81431	1.49380E-09
83.98713	1.49306E-09
84.15994	1.49232E-09
84.33275	1.49159E-09
84.50557	1.49086E-09
84.67838	1.49014E-09
84.85119	1.48944E-09
85.02401	1.48873E-09
85.19682	1.48803E-09
85.36963	1.48735E-09
85.54244	1.48668E-09
85.71526	1.48601E-09
85.88807	1.48535E-09
86.06088	1.48469E-09
86.23370	1.48405E-09
86.40651	1.48342E-09
86.57932	1.48280E-09
86.75214	1.48218E-09
86.92495	1.48156E-09
87.09776	1.48096E-09
87.27058	1.48037E-09
87.44339	1.47977E-09
87.61620	1.47918E-09
87.78901	1.47860E-09
87.96183	1.47802E-09
88.13464	1.47745E-09
88.30745	1.47687E-09
88.48027	1.47629E-09
88.65308	1.47570E-09
88.82589	1.47513E-09
88.99871	1.47454E-09
89.17152	1.47395E-09
89.34433	1.47336E-09
89.51714	1.47275E-09
89.68996	1.47213E-09
89.86277	1.47152E-09
90.03558	1.47089E-09
90.20840	1.47024E-09
90.38121	1.46959E-09
90.55402	1.46892E-09
90.72684	1.46824E-09
90.89965	1.46755E-09
91.07246	1.46683E-09
91.24527	1.46611E-09
91.41809	1.46536E-09
91.59090	1.46459E-09
91.76371	1.46380E-09
91.93653	1.46300E-09
92.10934	1.46217E-09
92.28215	1.46132E-09
92.45497	1.46046E-09
92.62778	1.45957E-09
92.80059	1.45866E-09
92.97340	1.45773E-09
93.14622	1.45678E-09
93.31903	1.45580E-09
93.49184	1.45480E-09
93.66466	1.45379E-09
93.83747	1.45275E-09
94.01028	1.45169E-09
94.18310	1.45062E-09
94.35591	1.44953E-09
94.52872	1.44841E-09
94.70153	1.44728E-09
94.87435	1.44613E-09
95.04716	1.44497E-09
95.21997	1.44379E-09
95.39279	1.44260E-09
95.56560	1.44140E-09
95.73841	1.44019E-09
95.91123	1.43897E-09
96.08404	1.43773E-09
96.25685	1.43649E-09
96.42967	1.43524E-09
96.60248	1.43400E-09
96.77529	1.43275E-09
96.94810	1.43149E-09
97.12092	1.43023E-09
97.29373	1.42898E-09
97.46654	1.42773E-09
97.63936	1.42648E-09
97.81217	1.42524E-09
97.98498	1.42400E-09
98.15780	1.42277E-09
98.33061	1.42155E-09
98.50342	1.42035E-09
98.67623	1.41914E-09
98.84905	1.41795E-09
99.02186	1.41678E-09
99.19467	1.41562E-09
99.36749	1.41448E-09
99.54030	1.41334E-09
99.71311	1.41223E-09
99.88593	1.41114E-09
100.05874	1.41006E-09
100.23155	1.40899E-09
100.40436	1.40795E-09
100.57718	1.40693E-09
100.74999	1.40592E-09
100.92280	1.40493E-09
101.09562	1.40397E-09
101.26843	1.40302E-09
101.44124	1.40209E-09
101.61406	1.40118E-09
101.78687	1.40030E-09
101.95968	1.39943E-09
102.13249	1.39858E-09
102.30531	1.39774E-09
102.47812	1.39693E-09
102.65093	1.39613E-09
102.82375	1.39535E-09
102.99656	1.39459E-09
103.16937	1.39383E-09
103.34219	1.39310E-09
103.51500	1.39238E-09
103.68781	1.39166E-09
103.86062	1.39096E-09
104.03344	1.39027E-09
104.20625	1.38960E-09
104.37906	1.38894E-09
104.55188	1.38827E-09
104.72469	1.38762E-09
104.89750	1.38697E-09
105.07032	1.38632E-09
105.24313	1.38568E-09
105.41594	1.38503E-09
105.58876	1.38439E-09
105.76157	1.38375E-09
105.93438	1.38310E-09
106.10719	1.38246E-09
106.28001	1.38181E-09
106.45282	1.38116E-09
106.62563	1.38050E-09
106.79845	1.37983E-09
106.97126	1.37916E-09
107.14407	1.37848E-09
107.31689	1.37779E-09
107.48970	1.37710E-09
107.66251	1.37638E-09
107.83532	1.37566E-09
108.00814	1.37493E-09
108.18095	1.37418E-09
108.35376	1.37342E-09
108.52658	1.37266E-09
108.69939	1.37187E-09
108.87220	1.37108E-09
109.04502	1.37027E-09
109.21783	1.36946E-09
109.39064	1.36862E-09
109.56345	1.36777E-09
109.73627	1.36691E-09
109.90908	1.36604E-09
110.08189	1.36516E-09
110.25471	1.36427E-09
110.42752	1.36335E-09
110.60033	1.36243E-09
110.77315	1.36151E-09
110.94596	1.36057E-09
111.11877	1.35962E-09
111.29158	1.35867E-09
111.46440	1.35770E-09
111.63721	1.35673E-09
111.81002	1.35575E-09
111.98284	1.35478E-09
112.15565	1.35379E-09
112.32846	1.35280E-09
112.50128	1.35182E-09
112.67409	1.35084E-09
112.84690	1.34985E-09
113.01972	1.34887E-09
113.19253	1.34789E-09
113.36534	1.34692E-09
113.53815	1.34594E-09
113.71097	1.34498E-09
113.88378	1.34403E-09
114.05659	1.34308E-09
114.22941	1.34215E-09
114.40222	1.34122E-09
114.57503	1.34031E-09
114.74785	1.33942E-09
114.92066	1.33853E-09
115.09347	1.33766E-09
115.26628	1.33680E-09
115.43910	1.33596E-09
115.61191	1.33514E-09
115.78472	1.33434E-09
115.95754	1.33356E-09
116.13035	1.33280E-09
116.30316	1.33205E-09
116.47598	1.33132E-09
116.64879	1.33062E-09
116.82160	1.32994E-09
116.99441	1.32928E-09
117.16723	1.32864E-09
117.34004	1.32803E-09
117.51285	1.32744E-09
117.68567	1.32688E-09
117.85848	1.32633E-09
118.03129	1.32581E-09
118.20411	1.32532E-09
118.37692	1.32485E-09
118.54973	1.32441E-09
118.72254	1.32398E-09
118.89536	1.32358E-09
119.06817	1.32320E-09
119.24098	1.32286E-09
119.41380	1.32253E-09
119.58661	1.32222E-09
119.75942	1.32194E-09
119.93224	1.32168E-09
120.10505	1.32145E-09
120.27786	1.32123E-09
120.45067	1.32104E-09
120.62349	1.32087E-09
120.79630	1.32072E-09
120.96911	1.32059E-09
121.14193	1.32048E-09
121.31474	1.32040E-09
121.48755	1.32033E-09
121.66037	1.32028E-09
121.83318	1.32025E-09
122.00599	1.32025E-09
122.17881	1.32025E-09
122.35162	1.32029E-09
122.52443	1.32034E-09
122.69724	1.32040E-09
122.87006	1.32048E-09
123.04287	1.32058E-09
123.21568	1.32069E-09
123.38850	1.32083E-09
123.56131	1.32098E-09
123.73412	1.32115E-09
123.90694	1.32134E-09
124.07975	1.32154E-09
124.25256	1.32176E-09
124.42537	1.32199E-09
124.59819	1.32224E-09
124.77100	1.32252E-09
124.94381	1.32280E-09
125.11663	1.32311E-09
125.28944	1.32344E-09
125.46225	1.32378E-09
125.63507	1.32414E-09
125.80788	1.32452E-09
125.98069	1.32492E-09
126.15350	1.32533E-09
126.32632	1.32577E-09
126.49913	1.32623E-09
126.67194	1.32671E-09
126.84476	1.32721E-09
127.01757	1.32773E-09
127.19038	1.32827E-09
127.36320	1.32884E-09
127.53601	1.32943E-09
127.70882	1.33005E-09
127.88163	1.33068E-09
128.05445	1.33135E-09
128.22726	1.33204E-09
128.40007	1.33275E-09
128.57289	1.33348E-09
128.74570	1.33425E-09
128.91851	1.33504E-09
129.09133	1.33586E-09
129.26414	1.33671E-09
129.43695	1.33758E-09
129.60976	1.33848E-09
129.78258	1.33941E-09
129.95539	1.34037E-09
130.12820	1.34135E-09
130.30102	1.34237E-09
130.47383	1.34341E-09
130.64664	1.34448E-09
130.81946	1.34558E-09
130.99227	1.34671E-09
131.16508	1.34786E-09
131.33790	1.34905E-09
131.51071	1.35027E-09
131.68352	1.35151E-09
131.85633	1.35279E-09
132.02915	1.35409E-09
132.20196	1.35542E-09
132.37477	1.35678E-09
132.54759	1.35816E-09
132.72040	1.35957E-09
132.89321	1.36100E-09
133.06603	1.36245E-09
133.23884	1.36393E-09
133.41165	1.36544E-09
133.58446	1.36696E-09
133.75728	1.36850E-09
133.93009	1.37007E-09
134.10290	1.37166E-09
134.27572	1.37326E-09
134.44853	1.37488E-09
134.62134	1.37651E-09
134.79416	1.37817E-09
134.96697	1.37983E-09
135.13978	1.38151E-09
135.31259	1.38320E-09
135.48541	1.38490E-09
135.65822	1.38660E-09
135.83103	1.38833E-09
136.00385	1.39004E-09
136.17666	1.39178E-09
136.34947	1.39351E-09
136.52229	1.39524E-09
136.69510	1.39698E-09
136.86791	1.39872E-09
137.04072	1.40045E-09
137.21354	1.40219E-09
137.38635	1.40393E-09
137.55916	1.40566E-09
137.73198	1.40739E-09
137.90479	1.40912E-09
138.07760	1.41084E-09
138.25042	1.41255E-09
138.42323	1.41426E-09
138.59604	1.41595E-09
138.76885	1.41764E-09
138.94167	1.41932E-09
139.11448	1.42099E-09
139.28729	1.42266E-09
139.46011	1.42431E-09
139.63292	1.42595E-09
139.80573	1.42758E-09
139.97855	1.42921E-09
140.15136	1.43082E-09
140.32417	1.43242E-09
140.49699	1.43401E-09
140.66980	1.43559E-09
140.84261	1.43716E-09
141.01542	1.43872E-09
141.18824	1.44028E-09
141.36105	1.44183E-09
141.53386	1.44338E-09
141.70668	1.44491E-09
141.87949	1.44644E-09
142.05230	1.44797E-09
142.22512	1.44950E-09
142.39793	1.45103E-09
142.57074	1.45255E-09
142.74355	1.45407E-09
142.91637	1.45560E-09
143.08918	1.45712E-09
143.26199	1.45867E-09
143.43481	1.46021E-09
143.60762	1.46175E-09
143.78043	1.46331E-09
143.95325	1.46487E-09
144.12606	1.46645E-09
144.29887	1.46805E-09
144.47168	1.46965E-09
144.64450	1.47126E-09
144.81731	1.47290E-09
144.99012	1.47455E-09
145.16294	1.47623E-09
145.33575	1.47791E-09
145.50856	1.47963E-09
145.68138	1.48136E-09
145.85419	1.48312E-09
146.02700	1.48490E-09
146.19981	1.48670E-09
146.37263	1.48853E-09
146.54544	1.49040E-09
146.71825	1.49229E-09
146.89107	1.49421E-09
147.06388	1.49616E-09
147.23669	1.49814E-09
147.40951	1.50015E-09
147.58232	1.50218E-09
147.75513	1.50426E-09
147.92794	1.50636E-09
148.10076	1.50849E-09
148.27357	1.51066E-09
148.44638	1.51286E-09
148.61920	1.51508E-09
148.79201	1.51734E-09
148.96482	1.51964E-09
149.13764	1.52196E-09
149.31045	1.52430E-09
149.48326	1.52669E-09
149.65608	1.52910E-09
149.82889	1.53154E-09
150.00170	1.53400E-09
150.17451	1.53650E-09
150.34733	1.53900E-09
150.52014	1.54155E-09
150.69295	1.54412E-09
150.86577	1.54671E-09
151.03858	1.54931E-09
151.21139	1.55194E-09
151.38421	1.55459E-09
151.55702	1.55725E-09
151.72983	1.55993E-09
151.90264	1.56264E-09
152.07546	1.56534E-09
152.24827	1.56807E-09
152.42108	1.57079E-09
152.59390	1.57353E-09
152.76671	1.57628E-09
152.93952	1.57904E-09
153.11234	1.58180E-09
153.28515	1.58457E-09
153.45796	1.58733E-09
153.63077	1.59010E-09
153.80359	1.59287E-09
153.97640	1.59564E-09
154.14921	1.59840E-09
154.32203	1.60117E-09
154.49484	1.60392E-09
154.66765	1.60667E-09
154.84047	1.60942E-09
155.01328	1.61216E-09
155.18609	1.61490E-09
155.35890	1.61763E-09
155.53172	1.62034E-09
155.70453	1.62306E-09
155.87734	1.62576E-09
156.05016	1.62844E-09
156.22297	1.63113E-09
156.39578	1.63380E-09
156.56860	1.63647E-09
156.74141	1.63914E-09
156.91422	1.64178E-09
157.08703	1.64442E-09
157.25985	1.64706E-09
157.43266	1.64970E-09
157.60547	1.65233E-09
157.77829	1.65495E-09
157.95110	1.65757E-09
158.12391	1.66018E-09
158.29673	1.66281E-09
158.46954	1.66543E-09
158.64235	1.66804E-09
158.81517	1.67067E-09
158.98798	1.67330E-09
159.16079	1.67593E-09
159.33360	1.67857E-09
159.50642	1.68122E-09
159.67923	1.68387E-09
159.85204	1.68654E-09
160.02486	1.68922E-09
160.19767	1.69193E-09
160.37048	1.69463E-09
160.54330	1.69737E-09
160.71611	1.70012E-09
160.88892	1.70290E-09
161.06173	1.70569E-09
161.23455	1.70851E-09
161.40736	1.71136E-09
161.58017	1.71423E-09
161.75299	1.71713E-09
161.92580	1.72006E-09
162.09861	1.72301E-09
162.27143	1.72600E-09
162.44424	1.72903E-09
162.61705	1.73208E-09
162.78986	1.73518E-09
162.96268	1.73829E-09
163.13549	1.74146E-09
163.30830	1.74465E-09
163.48112	1.74786E-09
163.65393	1.75113E-09
163.82674	1.75442E-09
163.99956	1.75775E-09
164.17237	1.76111E-09
164.34518	1.76451E-09
164.51799	1.76793E-09
164.69081	1.77140E-09
164.86362	1.77490E-09
165.03643	1.77842E-09
165.20925	1.78198E-09
165.38206	1.78555E-09
165.55487	1.78917E-09
165.72769	1.79280E-09
165.90050	1.79645E-09
166.07331	1.80012E-09
166.24612	1.80382E-09
166.41894	1.80753E-09
166.59175	1.81125E-09
166.76456	1.81499E-09
166.93738	1.81874E-09
167.11019	1.82250E-09
167.28300	1.82626E-09
167.45582	1.83004E-09
167.62863	1.83379E-09
167.80144	1.83756E-09
167.97426	1.84131E-09
168.14707	1.84506E-09
168.31988	1.84879E-09
168.49269	1.85252E-09
168.66551	1.85622E-09
168.83832	1.85991E-09
169.01113	1.86357E-09
169.18395	1.86722E-09
169.35676	1.87083E-09
169.52957	1.87441E-09
169.70239	1.87796E-09
169.87520	1.88147E-09
170.04801	1.88495E-09
170.22082	1.88838E-09
170.39364	1.89177E-09
170.56645	1.89513E-09
170.73926	1.89844E-09
170.91208	1.90170E-09
171.08489	1.90489E-09
171.25770	1.90806E-09
171.43052	1.91115E-09
171.60333	1.91420E-09
171.77614	1.91721E-09
171.94895	1.92015E-09
172.12177	1.92304E-09
172.29458	1.92588E-09
172.46739	1.92865E-09
172.64021	1.93137E-09
172.81302	1.93404E-09
172.98583	1.93665E-09
173.15865	1.93922E-09
173.33146	1.94173E-09
173.50427	1.94420E-09
173.67708	1.94660E-09
173.84990	1.94896E-09
174.02271	1.95128E-09
174.19552	1.95356E-09
174.36834	1.95579E-09
174.54115	1.95797E-09
174.71396	1.96013E-09
174.88678	1.96224E-09
175.05959	1.96433E-09
175.23240	1.96637E-09
175.40521	1.96841E-09
175.57803	1.97041E-09
175.75084	1.97237E-09
175.92365	1.97434E-09
176.09647	1.97629E-09
176.26928	1.97824E-09
176.44209	1.98015E-09
176.61491	1.98208E-09
176.78772	1.98401E-09
176.96053	1.98592E-09
177.13335	1.98784E-09
177.30616	1.98979E-09
177.47897	1.99173E-09
177.65178	1.99370E-09
177.82460	1.99566E-09
177.99741	1.99765E-09
178.17022	1.99969E-09
178.34304	2.00173E-09
