Wavenumber	NESR 15.67 cm-1
1019.53296	5.14600E-09
1019.65741	5.14272E-09
1019.78186	5.13826E-09
1019.90631	5.13264E-09
1020.03076	5.12586E-09
1020.15521	5.11795E-09
1020.27966	5.10894E-09
1020.40411	5.09885E-09
1020.52863	5.08772E-09
1020.65308	5.07558E-09
1020.77753	5.06248E-09
1020.90198	5.04845E-09
1021.02643	5.03355E-09
1021.15088	5.01782E-09
1021.27533	5.00131E-09
1021.39978	4.98406E-09
1021.52423	4.96613E-09
1021.64868	4.94756E-09
1021.77313	4.92839E-09
1021.89758	4.90870E-09
1022.02203	4.88849E-09
1022.14648	4.86784E-09
1022.27094	4.84677E-09
1022.39545	4.82533E-09
1022.51990	4.80355E-09
1022.64435	4.78149E-09
1022.76880	4.75916E-09
1022.89325	4.73660E-09
1023.01770	4.71384E-09
1023.14215	4.69091E-09
1023.26660	4.66783E-09
1023.39105	4.64462E-09
1023.51550	4.62133E-09
1023.63995	4.59796E-09
1023.76440	4.57453E-09
1023.88886	4.55105E-09
1024.01331	4.52757E-09
1024.13782	4.50406E-09
1024.26221	4.48058E-09
1024.38672	4.45711E-09
1024.51111	4.43367E-09
1024.63562	4.41027E-09
1024.76001	4.38692E-09
1024.88452	4.36363E-09
1025.00891	4.34041E-09
1025.13342	4.31726E-09
1025.25794	4.29419E-09
1025.38232	4.27120E-09
1025.50684	4.24831E-09
1025.63123	4.22552E-09
1025.75574	4.20282E-09
1025.88013	4.18024E-09
1026.00464	4.15777E-09
1026.12903	4.13540E-09
1026.25354	4.11315E-09
1026.37793	4.09102E-09
1026.50244	4.06901E-09
1026.62683	4.04712E-09
1026.75134	4.02536E-09
1026.87573	4.00372E-09
1027.00024	3.98221E-09
1027.12476	3.96082E-09
1027.24915	3.93957E-09
1027.37366	3.91845E-09
1027.49805	3.89747E-09
1027.62256	3.87662E-09
1027.74695	3.85590E-09
1027.87146	3.83533E-09
1027.99585	3.81488E-09
1028.12036	3.79458E-09
1028.24475	3.77441E-09
1028.36926	3.75437E-09
1028.49365	3.73448E-09
1028.61816	3.71472E-09
1028.74255	3.69510E-09
1028.86707	3.67562E-09
1028.99158	3.65628E-09
1029.11597	3.63707E-09
1029.24048	3.61801E-09
1029.36487	3.59908E-09
1029.48938	3.58029E-09
1029.61377	3.56164E-09
1029.73828	3.54313E-09
1029.86267	3.52475E-09
1029.98718	3.50651E-09
1030.11157	3.48840E-09
1030.23608	3.47044E-09
1030.36047	3.45260E-09
1030.48499	3.43490E-09
1030.60938	3.41733E-09
1030.73389	3.39990E-09
1030.85828	3.38260E-09
1030.98279	3.36543E-09
1031.10730	3.34839E-09
1031.23169	3.33149E-09
1031.35620	3.31471E-09
1031.48059	3.29806E-09
1031.60510	3.28154E-09
1031.72949	3.26515E-09
1031.85400	3.24888E-09
1031.97839	3.23274E-09
1032.10291	3.21672E-09
1032.22730	3.20082E-09
1032.35181	3.18504E-09
1032.47620	3.16939E-09
1032.60071	3.15385E-09
1032.72510	3.13844E-09
1032.84961	3.12314E-09
1032.97412	3.10796E-09
1033.09851	3.09289E-09
1033.22302	3.07793E-09
1033.34741	3.06309E-09
1033.47192	3.04836E-09
1033.59631	3.03374E-09
1033.72083	3.01923E-09
1033.84522	3.00482E-09
1033.96973	2.99052E-09
1034.09412	2.97633E-09
1034.21863	2.96224E-09
1034.34302	2.94825E-09
1034.46753	2.93436E-09
1034.59192	2.92057E-09
1034.71643	2.90688E-09
1034.84094	2.89329E-09
1034.96533	2.87979E-09
1035.08984	2.86639E-09
1035.21423	2.85307E-09
1035.33875	2.83986E-09
1035.46314	2.82673E-09
1035.58765	2.81368E-09
1035.71204	2.80073E-09
1035.83655	2.78786E-09
1035.96094	2.77508E-09
1036.08545	2.76238E-09
1036.20984	2.74976E-09
1036.33435	2.73722E-09
1036.45874	2.72477E-09
1036.58325	2.71239E-09
1036.70776	2.70009E-09
1036.83215	2.68786E-09
1036.95667	2.67571E-09
1037.08106	2.66363E-09
1037.20557	2.65163E-09
1037.32996	2.63970E-09
1037.45447	2.62784E-09
1037.57886	2.61604E-09
1037.70337	2.60432E-09
1037.82776	2.59266E-09
1037.95227	2.58107E-09
1038.07666	2.56954E-09
1038.20117	2.55808E-09
1038.32556	2.54668E-09
1038.45007	2.53534E-09
1038.57459	2.52407E-09
1038.69898	2.51285E-09
1038.82349	2.50170E-09
1038.94788	2.49060E-09
1039.07239	2.47956E-09
1039.19678	2.46858E-09
1039.32129	2.45765E-09
1039.44568	2.44678E-09
1039.57019	2.43596E-09
1039.69458	2.42520E-09
1039.81909	2.41450E-09
1039.94348	2.40384E-09
1040.06799	2.39324E-09
1040.19238	2.38269E-09
1040.31690	2.37220E-09
1040.44141	2.36175E-09
1040.56580	2.35136E-09
1040.69031	2.34101E-09
1040.81470	2.33072E-09
1040.93921	2.32047E-09
1041.06360	2.31028E-09
1041.18811	2.30013E-09
1041.31250	2.29003E-09
1041.43701	2.27998E-09
1041.56140	2.26998E-09
1041.68591	2.26002E-09
1041.81030	2.25011E-09
1041.93481	2.24025E-09
1042.05920	2.23044E-09
1042.18372	2.22067E-09
1042.30823	2.21095E-09
1042.43262	2.20128E-09
1042.55713	2.19165E-09
1042.68152	2.18207E-09
1042.80603	2.17253E-09
1042.93042	2.16305E-09
1043.05493	2.15360E-09
1043.17932	2.14421E-09
1043.30383	2.13486E-09
1043.42822	2.12555E-09
1043.55273	2.11629E-09
1043.67712	2.10708E-09
1043.80164	2.09791E-09
1043.92603	2.08879E-09
1044.05054	2.07972E-09
1044.17505	2.07069E-09
1044.29944	2.06171E-09
1044.42395	2.05277E-09
1044.54834	2.04388E-09
1044.67285	2.03503E-09
1044.79724	2.02623E-09
1044.92175	2.01748E-09
1045.04614	2.00877E-09
1045.17065	2.00011E-09
1045.29504	1.99150E-09
1045.41956	1.98293E-09
1045.54395	1.97441E-09
1045.66846	1.96594E-09
1045.79285	1.95751E-09
1045.91736	1.94912E-09
1046.04187	1.94079E-09
1046.16626	1.93250E-09
1046.29077	1.92426E-09
1046.41516	1.91606E-09
1046.53967	1.90791E-09
1046.66406	1.89980E-09
1046.78857	1.89174E-09
1046.91296	1.88373E-09
1047.03748	1.87577E-09
1047.16187	1.86785E-09
1047.28638	1.85998E-09
1047.41077	1.85215E-09
1047.53528	1.84437E-09
1047.65967	1.83663E-09
1047.78418	1.82894E-09
1047.90869	1.82129E-09
1048.03308	1.81369E-09
1048.15759	1.80614E-09
1048.28198	1.79863E-09
1048.40649	1.79117E-09
1048.53088	1.78375E-09
1048.65540	1.77638E-09
1048.77979	1.76905E-09
1048.90430	1.76176E-09
1049.02869	1.75452E-09
1049.15320	1.74733E-09
1049.27759	1.74017E-09
1049.40210	1.73307E-09
1049.52649	1.72600E-09
1049.65100	1.71898E-09
1049.77551	1.71200E-09
1049.89990	1.70507E-09
1050.02441	1.69817E-09
1050.14880	1.69132E-09
1050.27332	1.68451E-09
1050.39771	1.67775E-09
1050.52222	1.67102E-09
1050.64661	1.66434E-09
1050.77112	1.65769E-09
1050.89551	1.65109E-09
1051.02002	1.64453E-09
1051.14441	1.63801E-09
1051.26892	1.63152E-09
1051.39331	1.62508E-09
1051.51782	1.61867E-09
1051.64233	1.61231E-09
1051.76672	1.60598E-09
1051.89124	1.59969E-09
1052.01563	1.59344E-09
1052.14014	1.58723E-09
1052.26453	1.58105E-09
1052.38904	1.57491E-09
1052.51343	1.56881E-09
1052.63794	1.56274E-09
1052.76233	1.55671E-09
1052.88684	1.55071E-09
1053.01123	1.54476E-09
1053.13574	1.53883E-09
1053.26013	1.53294E-09
1053.38464	1.52709E-09
1053.50903	1.52126E-09
1053.63355	1.51548E-09
1053.75806	1.50972E-09
1053.88245	1.50400E-09
1054.00696	1.49831E-09
1054.13135	1.49266E-09
1054.25586	1.48703E-09
1054.38025	1.48144E-09
1054.50476	1.47588E-09
1054.62915	1.47035E-09
1054.75366	1.46485E-09
1054.87805	1.45939E-09
1055.00256	1.45395E-09
1055.12695	1.44854E-09
1055.25147	1.44317E-09
1055.37585	1.43782E-09
1055.50037	1.43250E-09
1055.62488	1.42721E-09
1055.74927	1.42195E-09
1055.87378	1.41672E-09
1055.99817	1.41152E-09
1056.12268	1.40635E-09
1056.24707	1.40120E-09
1056.37158	1.39609E-09
1056.49597	1.39100E-09
1056.62048	1.38594E-09
1056.74487	1.38090E-09
1056.86939	1.37589E-09
1056.99377	1.37091E-09
1057.11829	1.36596E-09
1057.24268	1.36103E-09
1057.36719	1.35613E-09
1057.49170	1.35126E-09
1057.61609	1.34641E-09
1057.74060	1.34159E-09
1057.86499	1.33679E-09
1057.98950	1.33202E-09
1058.11389	1.32728E-09
1058.23840	1.32256E-09
1058.36279	1.31786E-09
1058.48731	1.31319E-09
1058.61169	1.30855E-09
1058.73621	1.30393E-09
1058.86060	1.29933E-09
1058.98511	1.29476E-09
1059.10950	1.29022E-09
1059.23401	1.28569E-09
1059.35852	1.28120E-09
1059.48291	1.27673E-09
1059.60742	1.27228E-09
1059.73181	1.26785E-09
1059.85632	1.26345E-09
1059.98071	1.25907E-09
1060.10523	1.25472E-09
1060.22961	1.25039E-09
1060.35413	1.24608E-09
1060.47852	1.24180E-09
1060.60303	1.23754E-09
1060.72742	1.23330E-09
1060.85193	1.22909E-09
1060.97632	1.22490E-09
1061.10083	1.22073E-09
1061.22534	1.21658E-09
1061.34973	1.21246E-09
1061.47424	1.20836E-09
1061.59863	1.20428E-09
1061.72315	1.20023E-09
1061.84753	1.19620E-09
1061.97205	1.19219E-09
1062.09644	1.18820E-09
1062.22095	1.18423E-09
1062.34534	1.18029E-09
1062.46985	1.17637E-09
1062.59424	1.17247E-09
1062.71875	1.16859E-09
1062.84314	1.16473E-09
1062.96765	1.16089E-09
1063.09216	1.15708E-09
1063.21655	1.15328E-09
1063.34106	1.14951E-09
1063.46545	1.14576E-09
1063.58997	1.14203E-09
1063.71436	1.13831E-09
1063.83887	1.13463E-09
1063.96326	1.13096E-09
1064.08777	1.12730E-09
1064.21216	1.12367E-09
1064.33667	1.12006E-09
1064.46106	1.11647E-09
1064.58557	1.11291E-09
1064.70996	1.10936E-09
1064.83447	1.10582E-09
1064.95898	1.10231E-09
1065.08337	1.09882E-09
1065.20789	1.09535E-09
1065.33228	1.09189E-09
1065.45679	1.08846E-09
1065.58118	1.08504E-09
1065.70569	1.08164E-09
1065.83008	1.07826E-09
1065.95459	1.07490E-09
1066.07898	1.07156E-09
1066.20349	1.06823E-09
1066.32788	1.06492E-09
1066.45239	1.06163E-09
1066.57678	1.05836E-09
1066.70129	1.05511E-09
1066.82581	1.05187E-09
1066.95020	1.04865E-09
1067.07471	1.04545E-09
1067.19910	1.04226E-09
1067.32361	1.03909E-09
1067.44800	1.03594E-09
1067.57251	1.03281E-09
1067.69690	1.02968E-09
1067.82141	1.02658E-09
1067.94580	1.02349E-09
1068.07031	1.02042E-09
1068.19470	1.01736E-09
1068.31921	1.01432E-09
1068.44360	1.01130E-09
1068.56812	1.00829E-09
1068.69263	1.00530E-09
1068.81702	1.00232E-09
1068.94153	9.99352E-10
1069.06592	9.96404E-10
1069.19043	9.93471E-10
1069.31482	9.90552E-10
1069.43933	9.87646E-10
1069.56372	9.84755E-10
1069.68823	9.81880E-10
1069.81262	9.79019E-10
1069.93713	9.76172E-10
1070.06152	9.73340E-10
1070.18604	9.70522E-10
1070.31043	9.67718E-10
1070.43494	9.64926E-10
1070.55945	9.62151E-10
1070.68384	9.59388E-10
1070.80835	9.56640E-10
1070.93274	9.53905E-10
1071.05725	9.51185E-10
1071.18164	9.48477E-10
1071.30615	9.45783E-10
1071.43054	9.43103E-10
1071.55505	9.40436E-10
1071.67944	9.37783E-10
1071.80396	9.35142E-10
1071.92835	9.32515E-10
1072.05286	9.29903E-10
1072.17725	9.27304E-10
1072.30176	9.24717E-10
1072.42627	9.22143E-10
1072.55066	9.19583E-10
1072.67517	9.17036E-10
1072.79956	9.14503E-10
1072.92407	9.11983E-10
1073.04846	9.09476E-10
1073.17297	9.06982E-10
1073.29736	9.04502E-10
1073.42188	9.02034E-10
1073.54627	8.99580E-10
1073.67078	8.97140E-10
1073.79517	8.94712E-10
1073.91968	8.92297E-10
1074.04407	8.89896E-10
1074.16858	8.87508E-10
1074.29309	8.85134E-10
1074.41748	8.82771E-10
1074.54199	8.80422E-10
1074.66638	8.78088E-10
1074.79089	8.75765E-10
1074.91528	8.73456E-10
1075.03980	8.71159E-10
1075.16419	8.68877E-10
1075.28870	8.66608E-10
1075.41309	8.64351E-10
1075.53760	8.62108E-10
1075.66199	8.59878E-10
1075.78650	8.57661E-10
1075.91089	8.55457E-10
1076.03540	8.53266E-10
1076.15979	8.51090E-10
1076.28430	8.48925E-10
1076.40881	8.46775E-10
1076.53320	8.44637E-10
1076.65772	8.42512E-10
1076.78210	8.40400E-10
1076.90662	8.38302E-10
1077.03101	8.36217E-10
1077.15552	8.34145E-10
1077.27991	8.32086E-10
1077.40442	8.30040E-10
1077.52881	8.28007E-10
1077.65332	8.25986E-10
1077.77771	8.23979E-10
1077.90222	8.21985E-10
1078.02661	8.20003E-10
1078.15112	8.18034E-10
1078.27564	8.16079E-10
1078.40002	8.14136E-10
1078.52454	8.12206E-10
1078.64893	8.10288E-10
1078.77344	8.08384E-10
1078.89783	8.06491E-10
1079.02234	8.04611E-10
1079.14673	8.02744E-10
1079.27124	8.00889E-10
1079.39563	7.99047E-10
1079.52014	7.97216E-10
1079.64453	7.95398E-10
1079.76904	7.93593E-10
1079.89343	7.91798E-10
1080.01794	7.90016E-10
1080.14246	7.88246E-10
1080.26685	7.86488E-10
1080.39136	7.84741E-10
1080.51575	7.83007E-10
1080.64026	7.81284E-10
1080.76465	7.79573E-10
1080.88916	7.77872E-10
1081.01355	7.76185E-10
1081.13806	7.74506E-10
1081.26245	7.72840E-10
1081.38696	7.71184E-10
1081.51135	7.69540E-10
1081.63586	7.67907E-10
1081.76025	7.66284E-10
1081.88477	7.64671E-10
1082.00928	7.63070E-10
1082.13367	7.61479E-10
1082.25818	7.59898E-10
1082.38257	7.58327E-10
1082.50708	7.56766E-10
1082.63147	7.55215E-10
1082.75598	7.53675E-10
1082.88037	7.52144E-10
1083.00488	7.50622E-10
1083.12927	7.49111E-10
1083.25378	7.47609E-10
1083.37817	7.46116E-10
1083.50269	7.44633E-10
1083.62708	7.43158E-10
1083.75159	7.41693E-10
1083.87610	7.40237E-10
1084.00049	7.38790E-10
1084.12500	7.37351E-10
1084.24939	7.35922E-10
1084.37390	7.34500E-10
1084.49829	7.33087E-10
1084.62280	7.31683E-10
1084.74719	7.30286E-10
1084.87170	7.28899E-10
1084.99609	7.27519E-10
1085.12061	7.26147E-10
1085.24500	7.24782E-10
1085.36951	7.23426E-10
1085.49390	7.22077E-10
1085.61841	7.20736E-10
1085.74292	7.19403E-10
1085.86731	7.18077E-10
1085.99182	7.16759E-10
1086.11621	7.15448E-10
1086.24072	7.14144E-10
1086.36511	7.12848E-10
1086.48962	7.11559E-10
1086.61401	7.10278E-10
1086.73853	7.09002E-10
1086.86292	7.07735E-10
1086.98743	7.06474E-10
1087.11182	7.05220E-10
1087.23633	7.03973E-10
1087.36072	7.02734E-10
1087.48523	7.01500E-10
1087.60974	7.00274E-10
1087.73413	6.99054E-10
1087.85864	6.97841E-10
1087.98303	6.96634E-10
1088.10754	6.95434E-10
1088.23193	6.94241E-10
1088.35645	6.93055E-10
1088.48084	6.91875E-10
1088.60535	6.90701E-10
1088.72974	6.89535E-10
1088.85425	6.88375E-10
1088.97864	6.87221E-10
1089.10315	6.86074E-10
1089.22754	6.84934E-10
1089.35205	6.83799E-10
1089.47656	6.82672E-10
1089.60095	6.81552E-10
1089.72546	6.80437E-10
1089.84985	6.79329E-10
1089.97437	6.78227E-10
1090.09876	6.77133E-10
1090.22327	6.76045E-10
1090.34766	6.74963E-10
1090.47217	6.73887E-10
1090.59656	6.72819E-10
1090.72107	6.71757E-10
1090.84546	6.70702E-10
1090.96997	6.69653E-10
1091.09436	6.68611E-10
1091.21887	6.67576E-10
1091.34338	6.66547E-10
1091.46777	6.65525E-10
1091.59229	6.64510E-10
1091.71668	6.63502E-10
1091.84119	6.62500E-10
1091.96558	6.61505E-10
1092.09009	6.60517E-10
1092.21448	6.59536E-10
1092.33899	6.58562E-10
1092.46338	6.57594E-10
1092.58789	6.56634E-10
1092.71228	6.55680E-10
1092.83679	6.54733E-10
1092.96118	6.53793E-10
1093.08569	6.52860E-10
1093.21021	6.51934E-10
1093.33460	6.51015E-10
1093.45911	6.50103E-10
1093.58350	6.49198E-10
1093.70801	6.48300E-10
1093.83240	6.47409E-10
1093.95691	6.46525E-10
1094.08130	6.45647E-10
1094.20581	6.44777E-10
1094.33020	6.43914E-10
1094.45471	6.43058E-10
1094.57910	6.42209E-10
1094.70361	6.41366E-10
1094.82800	6.40531E-10
1094.95252	6.39702E-10
1095.07703	6.38881E-10
1095.20142	6.38066E-10
1095.32593	6.37259E-10
1095.45032	6.36458E-10
1095.57483	6.35664E-10
1095.69922	6.34877E-10
1095.82373	6.34096E-10
1095.94812	6.33323E-10
1096.07263	6.32556E-10
1096.19702	6.31796E-10
1096.32153	6.31043E-10
1096.44592	6.30296E-10
1096.57044	6.29556E-10
1096.69482	6.28823E-10
1096.81934	6.28096E-10
1096.94385	6.27375E-10
1097.06824	6.26661E-10
1097.19275	6.25953E-10
1097.31714	6.25251E-10
1097.44165	6.24556E-10
1097.56604	6.23867E-10
1097.69055	6.23184E-10
1097.81494	6.22508E-10
1097.93945	6.21836E-10
1098.06384	6.21171E-10
1098.18835	6.20512E-10
1098.31274	6.19859E-10
1098.43726	6.19212E-10
1098.56165	6.18570E-10
1098.68616	6.17935E-10
1098.81055	6.17304E-10
1098.93506	6.16680E-10
1099.05957	6.16060E-10
1099.18396	6.15446E-10
1099.30847	6.14837E-10
1099.43286	6.14234E-10
1099.55737	6.13636E-10
1099.68176	6.13042E-10
1099.80627	6.12453E-10
1099.93066	6.11870E-10
1100.05518	6.11292E-10
1100.17957	6.10718E-10
1100.30408	6.10148E-10
1100.42847	6.09584E-10
1100.55298	6.09024E-10
1100.67737	6.08468E-10
1100.80188	6.07917E-10
1100.92639	6.07370E-10
1101.05078	6.06828E-10
1101.17529	6.06290E-10
1101.29968	6.05755E-10
1101.42419	6.05225E-10
1101.54858	6.04699E-10
1101.67310	6.04177E-10
1101.79749	6.03659E-10
1101.92200	6.03144E-10
1102.04639	6.02634E-10
1102.17090	6.02126E-10
1102.29529	6.01623E-10
1102.41980	6.01123E-10
1102.54419	6.00626E-10
1102.66870	6.00133E-10
1102.79321	5.99643E-10
1102.91760	5.99156E-10
1103.04211	5.98673E-10
1103.16650	5.98193E-10
1103.29102	5.97716E-10
1103.41541	5.97242E-10
1103.53992	5.96771E-10
1103.66431	5.96304E-10
1103.78882	5.95839E-10
1103.91321	5.95377E-10
1104.03772	5.94918E-10
1104.16211	5.94462E-10
1104.28662	5.94009E-10
1104.41101	5.93558E-10
1104.53552	5.93110E-10
1104.66003	5.92666E-10
1104.78442	5.92223E-10
1104.90894	5.91784E-10
1105.03333	5.91347E-10
1105.15784	5.90913E-10
1105.28223	5.90481E-10
1105.40674	5.90052E-10
1105.53113	5.89626E-10
1105.65564	5.89202E-10
1105.78003	5.88781E-10
1105.90454	5.88363E-10
1106.02893	5.87947E-10
1106.15344	5.87533E-10
1106.27783	5.87123E-10
1106.40234	5.86714E-10
1106.52686	5.86308E-10
1106.65125	5.85905E-10
1106.77576	5.85504E-10
1106.90015	5.85106E-10
1107.02466	5.84710E-10
1107.14905	5.84317E-10
1107.27356	5.83927E-10
1107.39795	5.83538E-10
1107.52246	5.83153E-10
1107.64685	5.82769E-10
1107.77136	5.82390E-10
1107.89575	5.82012E-10
1108.02026	5.81636E-10
1108.14465	5.81264E-10
1108.26917	5.80893E-10
1108.39368	5.80526E-10
1108.51807	5.80161E-10
1108.64258	5.79799E-10
1108.76697	5.79439E-10
1108.89148	5.79082E-10
1109.01587	5.78727E-10
1109.14038	5.78375E-10
1109.26477	5.78025E-10
1109.38928	5.77678E-10
1109.51367	5.77334E-10
1109.63818	5.76992E-10
1109.76257	5.76653E-10
1109.88709	5.76317E-10
1110.01148	5.75984E-10
1110.13599	5.75653E-10
1110.26050	5.75324E-10
1110.38489	5.74998E-10
1110.50940	5.74675E-10
1110.63379	5.74354E-10
1110.75830	5.74037E-10
1110.88269	5.73721E-10
1111.00720	5.73409E-10
1111.13159	5.73098E-10
1111.25610	5.72790E-10
1111.38049	5.72485E-10
1111.50501	5.72182E-10
1111.62940	5.71882E-10
1111.75391	5.71585E-10
1111.87830	5.71289E-10
1112.00281	5.70997E-10
1112.12732	5.70706E-10
1112.25171	5.70419E-10
1112.37622	5.70133E-10
1112.50061	5.69850E-10
1112.62512	5.69569E-10
1112.74951	5.69290E-10
1112.87402	5.69014E-10
1112.99841	5.68740E-10
1113.12293	5.68468E-10
1113.24731	5.68198E-10
1113.37183	5.67931E-10
1113.49622	5.67665E-10
1113.62073	5.67402E-10
1113.74512	5.67141E-10
1113.86963	5.66882E-10
1113.99414	5.66624E-10
1114.11853	5.66369E-10
1114.24304	5.66115E-10
1114.36743	5.65863E-10
1114.49194	5.65613E-10
1114.61633	5.65364E-10
1114.74085	5.65118E-10
1114.86523	5.64873E-10
1114.98975	5.64629E-10
1115.11414	5.64387E-10
1115.23865	5.64147E-10
1115.36304	5.63909E-10
1115.48755	5.63671E-10
1115.61194	5.63434E-10
1115.73645	5.63200E-10
1115.86096	5.62966E-10
1115.98535	5.62733E-10
1116.10986	5.62502E-10
1116.23425	5.62272E-10
1116.35877	5.62043E-10
1116.48315	5.61815E-10
1116.60767	5.61588E-10
1116.73206	5.61363E-10
1116.85657	5.61138E-10
1116.98096	5.60913E-10
1117.10547	5.60690E-10
1117.22986	5.60467E-10
1117.35437	5.60245E-10
1117.47876	5.60024E-10
1117.60327	5.59803E-10
1117.72778	5.59583E-10
1117.85217	5.59363E-10
1117.97669	5.59145E-10
1118.10107	5.58926E-10
1118.22559	5.58709E-10
1118.34998	5.58492E-10
1118.47449	5.58276E-10
1118.59888	5.58059E-10
1118.72339	5.57843E-10
1118.84778	5.57627E-10
1118.97229	5.57412E-10
1119.09668	5.57197E-10
1119.22119	5.56983E-10
1119.34558	5.56768E-10
1119.47009	5.56554E-10
1119.59448	5.56340E-10
1119.71899	5.56126E-10
1119.84351	5.55913E-10
1119.96790	5.55700E-10
1120.09241	5.55487E-10
1120.21680	5.55275E-10
1120.34131	5.55062E-10
1120.46570	5.54850E-10
1120.59021	5.54638E-10
1120.71460	5.54427E-10
1120.83911	5.54215E-10
1120.96350	5.54004E-10
1121.08801	5.53793E-10
1121.21240	5.53582E-10
1121.33691	5.53371E-10
1121.46130	5.53161E-10
1121.58582	5.52951E-10
1121.71033	5.52742E-10
1121.83472	5.52533E-10
1121.95923	5.52324E-10
1122.08362	5.52115E-10
1122.20813	5.51908E-10
1122.33252	5.51700E-10
1122.45703	5.51493E-10
1122.58142	5.51286E-10
1122.70593	5.51080E-10
1122.83032	5.50874E-10
1122.95483	5.50668E-10
1123.07922	5.50464E-10
1123.20374	5.50260E-10
1123.32813	5.50056E-10
1123.45264	5.49853E-10
1123.57715	5.49651E-10
1123.70154	5.49450E-10
1123.82605	5.49249E-10
1123.95044	5.49049E-10
1124.07495	5.48849E-10
1124.19934	5.48651E-10
1124.32385	5.48453E-10
1124.44824	5.48257E-10
1124.57275	5.48061E-10
1124.69714	5.47865E-10
1124.82166	5.47671E-10
1124.94605	5.47478E-10
1125.07056	5.47286E-10
1125.19495	5.47094E-10
1125.31946	5.46904E-10
1125.44397	5.46715E-10
1125.56836	5.46527E-10
1125.69287	5.46340E-10
1125.81726	5.46154E-10
1125.94177	5.45969E-10
1126.06616	5.45784E-10
1126.19067	5.45602E-10
1126.31506	5.45421E-10
1126.43958	5.45240E-10
1126.56397	5.45061E-10
1126.68848	5.44883E-10
1126.81287	5.44706E-10
1126.93738	5.44531E-10
1127.06177	5.44356E-10
1127.18628	5.44183E-10
1127.31079	5.44011E-10
1127.43518	5.43840E-10
