Wavenumber	NESR 1.00 cm-1
1019.53296	2.77854E-08
1019.65741	2.77677E-08
1019.78186	2.77436E-08
1019.90631	2.77132E-08
1020.03076	2.76766E-08
1020.15521	2.76339E-08
1020.27966	2.75853E-08
1020.40411	2.75308E-08
1020.52863	2.74707E-08
1020.65308	2.74051E-08
1020.77753	2.73344E-08
1020.90198	2.72587E-08
1021.02643	2.71782E-08
1021.15088	2.70933E-08
1021.27533	2.70041E-08
1021.39978	2.69110E-08
1021.52423	2.68142E-08
1021.64868	2.67139E-08
1021.77313	2.66104E-08
1021.89758	2.65041E-08
1022.02203	2.63950E-08
1022.14648	2.62835E-08
1022.27094	2.61697E-08
1022.39545	2.60539E-08
1022.51990	2.59364E-08
1022.64435	2.58172E-08
1022.76880	2.56966E-08
1022.89325	2.55749E-08
1023.01770	2.54520E-08
1023.14215	2.53281E-08
1023.26660	2.52035E-08
1023.39105	2.50782E-08
1023.51550	2.49525E-08
1023.63995	2.48263E-08
1023.76440	2.46998E-08
1023.88886	2.45730E-08
1024.01331	2.44462E-08
1024.13782	2.43193E-08
1024.26221	2.41925E-08
1024.38672	2.40657E-08
1024.51111	2.39392E-08
1024.63562	2.38128E-08
1024.76001	2.36868E-08
1024.88452	2.35610E-08
1025.00891	2.34356E-08
1025.13342	2.33106E-08
1025.25794	2.31861E-08
1025.38232	2.30620E-08
1025.50684	2.29384E-08
1025.63123	2.28153E-08
1025.75574	2.26928E-08
1025.88013	2.25708E-08
1026.00464	2.24495E-08
1026.12903	2.23287E-08
1026.25354	2.22086E-08
1026.37793	2.20891E-08
1026.50244	2.19703E-08
1026.62683	2.18521E-08
1026.75134	2.17346E-08
1026.87573	2.16177E-08
1027.00024	2.15016E-08
1027.12476	2.13861E-08
1027.24915	2.12714E-08
1027.37366	2.11573E-08
1027.49805	2.10440E-08
1027.62256	2.09315E-08
1027.74695	2.08196E-08
1027.87146	2.07085E-08
1027.99585	2.05981E-08
1028.12036	2.04885E-08
1028.24475	2.03796E-08
1028.36926	2.02714E-08
1028.49365	2.01640E-08
1028.61816	2.00573E-08
1028.74255	1.99514E-08
1028.86707	1.98462E-08
1028.99158	1.97417E-08
1029.11597	1.96380E-08
1029.24048	1.95351E-08
1029.36487	1.94329E-08
1029.48938	1.93315E-08
1029.61377	1.92307E-08
1029.73828	1.91308E-08
1029.86267	1.90316E-08
1029.98718	1.89331E-08
1030.11157	1.88353E-08
1030.23608	1.87383E-08
1030.36047	1.86420E-08
1030.48499	1.85464E-08
1030.60938	1.84516E-08
1030.73389	1.83575E-08
1030.85828	1.82641E-08
1030.98279	1.81714E-08
1031.10730	1.80793E-08
1031.23169	1.79881E-08
1031.35620	1.78975E-08
1031.48059	1.78076E-08
1031.60510	1.77184E-08
1031.72949	1.76299E-08
1031.85400	1.75420E-08
1031.97839	1.74549E-08
1032.10291	1.73684E-08
1032.22730	1.72825E-08
1032.35181	1.71974E-08
1032.47620	1.71128E-08
1032.60071	1.70290E-08
1032.72510	1.69457E-08
1032.84961	1.68631E-08
1032.97412	1.67811E-08
1033.09851	1.66998E-08
1033.22302	1.66190E-08
1033.34741	1.65389E-08
1033.47192	1.64593E-08
1033.59631	1.63804E-08
1033.72083	1.63021E-08
1033.84522	1.62243E-08
1033.96973	1.61471E-08
1034.09412	1.60704E-08
1034.21863	1.59943E-08
1034.34302	1.59188E-08
1034.46753	1.58438E-08
1034.59192	1.57694E-08
1034.71643	1.56955E-08
1034.84094	1.56221E-08
1034.96533	1.55492E-08
1035.08984	1.54768E-08
1035.21423	1.54049E-08
1035.33875	1.53336E-08
1035.46314	1.52627E-08
1035.58765	1.51922E-08
1035.71204	1.51223E-08
1035.83655	1.50528E-08
1035.96094	1.49838E-08
1036.08545	1.49152E-08
1036.20984	1.48471E-08
1036.33435	1.47794E-08
1036.45874	1.47121E-08
1036.58325	1.46453E-08
1036.70776	1.45789E-08
1036.83215	1.45129E-08
1036.95667	1.44473E-08
1037.08106	1.43821E-08
1037.20557	1.43172E-08
1037.32996	1.42528E-08
1037.45447	1.41888E-08
1037.57886	1.41251E-08
1037.70337	1.40618E-08
1037.82776	1.39989E-08
1037.95227	1.39363E-08
1038.07666	1.38740E-08
1038.20117	1.38121E-08
1038.32556	1.37506E-08
1038.45007	1.36894E-08
1038.57459	1.36285E-08
1038.69898	1.35679E-08
1038.82349	1.35077E-08
1038.94788	1.34478E-08
1039.07239	1.33882E-08
1039.19678	1.33289E-08
1039.32129	1.32699E-08
1039.44568	1.32112E-08
1039.57019	1.31528E-08
1039.69458	1.30947E-08
1039.81909	1.30369E-08
1039.94348	1.29793E-08
1040.06799	1.29221E-08
1040.19238	1.28651E-08
1040.31690	1.28085E-08
1040.44141	1.27521E-08
1040.56580	1.26959E-08
1040.69031	1.26401E-08
1040.81470	1.25845E-08
1040.93921	1.25292E-08
1041.06360	1.24741E-08
1041.18811	1.24194E-08
1041.31250	1.23648E-08
1041.43701	1.23105E-08
1041.56140	1.22565E-08
1041.68591	1.22028E-08
1041.81030	1.21493E-08
1041.93481	1.20960E-08
1042.05920	1.20431E-08
1042.18372	1.19903E-08
1042.30823	1.19378E-08
1042.43262	1.18856E-08
1042.55713	1.18336E-08
1042.68152	1.17819E-08
1042.80603	1.17304E-08
1042.93042	1.16792E-08
1043.05493	1.16282E-08
1043.17932	1.15775E-08
1043.30383	1.15270E-08
1043.42822	1.14767E-08
1043.55273	1.14267E-08
1043.67712	1.13770E-08
1043.80164	1.13275E-08
1043.92603	1.12783E-08
1044.05054	1.12293E-08
1044.17505	1.11805E-08
1044.29944	1.11320E-08
1044.42395	1.10837E-08
1044.54834	1.10357E-08
1044.67285	1.09880E-08
1044.79724	1.09405E-08
1044.92175	1.08932E-08
1045.04614	1.08462E-08
1045.17065	1.07994E-08
1045.29504	1.07529E-08
1045.41956	1.07067E-08
1045.54395	1.06607E-08
1045.66846	1.06149E-08
1045.79285	1.05694E-08
1045.91736	1.05241E-08
1046.04187	1.04791E-08
1046.16626	1.04344E-08
1046.29077	1.03898E-08
1046.41516	1.03456E-08
1046.53967	1.03016E-08
1046.66406	1.02578E-08
1046.78857	1.02143E-08
1046.91296	1.01710E-08
1047.03748	1.01280E-08
1047.16187	1.00853E-08
1047.28638	1.00428E-08
1047.41077	1.00005E-08
1047.53528	9.95849E-09
1047.65967	9.91672E-09
1047.78418	9.87519E-09
1047.90869	9.83391E-09
1048.03308	9.79287E-09
1048.15759	9.75209E-09
1048.28198	9.71155E-09
1048.40649	9.67124E-09
1048.53088	9.63119E-09
1048.65540	9.59138E-09
1048.77979	9.55182E-09
1048.90430	9.51248E-09
1049.02869	9.47340E-09
1049.15320	9.43455E-09
1049.27759	9.39592E-09
1049.40210	9.35754E-09
1049.52649	9.31940E-09
1049.65100	9.28149E-09
1049.77551	9.24381E-09
1049.89990	9.20636E-09
1050.02441	9.16914E-09
1050.14880	9.13216E-09
1050.27332	9.09539E-09
1050.39771	9.05885E-09
1050.52222	9.02253E-09
1050.64661	8.98644E-09
1050.77112	8.95057E-09
1050.89551	8.91492E-09
1051.02002	8.87949E-09
1051.14441	8.84426E-09
1051.26892	8.80926E-09
1051.39331	8.77448E-09
1051.51782	8.73989E-09
1051.64233	8.70553E-09
1051.76672	8.67135E-09
1051.89124	8.63740E-09
1052.01563	8.60364E-09
1052.14014	8.57009E-09
1052.26453	8.53673E-09
1052.38904	8.50360E-09
1052.51343	8.47064E-09
1052.63794	8.43789E-09
1052.76233	8.40533E-09
1052.88684	8.37295E-09
1053.01123	8.34079E-09
1053.13574	8.30880E-09
1053.26013	8.27699E-09
1053.38464	8.24537E-09
1053.50903	8.21393E-09
1053.63355	8.18268E-09
1053.75806	8.15160E-09
1053.88245	8.12071E-09
1054.00696	8.09000E-09
1054.13135	8.05946E-09
1054.25586	8.02909E-09
1054.38025	7.99890E-09
1054.50476	7.96887E-09
1054.62915	7.93902E-09
1054.75366	7.90932E-09
1054.87805	7.87983E-09
1055.00256	7.85046E-09
1055.12695	7.82126E-09
1055.25147	7.79225E-09
1055.37585	7.76338E-09
1055.50037	7.73467E-09
1055.62488	7.70611E-09
1055.74927	7.67771E-09
1055.87378	7.64947E-09
1055.99817	7.62140E-09
1056.12268	7.59346E-09
1056.24707	7.56568E-09
1056.37158	7.53805E-09
1056.49597	7.51058E-09
1056.62048	7.48324E-09
1056.74487	7.45606E-09
1056.86939	7.42901E-09
1056.99377	7.40213E-09
1057.11829	7.37538E-09
1057.24268	7.34879E-09
1057.36719	7.32233E-09
1057.49170	7.29601E-09
1057.61609	7.26984E-09
1057.74060	7.24379E-09
1057.86499	7.21788E-09
1057.98950	7.19212E-09
1058.11389	7.16651E-09
1058.23840	7.14102E-09
1058.36279	7.11568E-09
1058.48731	7.09046E-09
1058.61169	7.06538E-09
1058.73621	7.04043E-09
1058.86060	7.01563E-09
1058.98511	6.99095E-09
1059.10950	6.96642E-09
1059.23401	6.94199E-09
1059.35852	6.91771E-09
1059.48291	6.89357E-09
1059.60742	6.86954E-09
1059.73181	6.84564E-09
1059.85632	6.82188E-09
1059.98071	6.79825E-09
1060.10523	6.77475E-09
1060.22961	6.75137E-09
1060.35413	6.72811E-09
1060.47852	6.70498E-09
1060.60303	6.68197E-09
1060.72742	6.65910E-09
1060.85193	6.63634E-09
1060.97632	6.61372E-09
1061.10083	6.59121E-09
1061.22534	6.56883E-09
1061.34973	6.54659E-09
1061.47424	6.52445E-09
1061.59863	6.50242E-09
1061.72315	6.48053E-09
1061.84753	6.45876E-09
1061.97205	6.43711E-09
1062.09644	6.41558E-09
1062.22095	6.39417E-09
1062.34534	6.37287E-09
1062.46985	6.35169E-09
1062.59424	6.33063E-09
1062.71875	6.30968E-09
1062.84314	6.28885E-09
1062.96765	6.26814E-09
1063.09216	6.24754E-09
1063.21655	6.22705E-09
1063.34106	6.20668E-09
1063.46545	6.18642E-09
1063.58997	6.16627E-09
1063.71436	6.14623E-09
1063.83887	6.12631E-09
1063.96326	6.10650E-09
1064.08777	6.08678E-09
1064.21216	6.06718E-09
1064.33667	6.04769E-09
1064.46106	6.02831E-09
1064.58557	6.00904E-09
1064.70996	5.98987E-09
1064.83447	5.97080E-09
1064.95898	5.95184E-09
1065.08337	5.93298E-09
1065.20789	5.91423E-09
1065.33228	5.89559E-09
1065.45679	5.87703E-09
1065.58118	5.85858E-09
1065.70569	5.84023E-09
1065.83008	5.82198E-09
1065.95459	5.80383E-09
1066.07898	5.78578E-09
1066.20349	5.76782E-09
1066.32788	5.74996E-09
1066.45239	5.73220E-09
1066.57678	5.71454E-09
1066.70129	5.69697E-09
1066.82581	5.67949E-09
1066.95020	5.66211E-09
1067.07471	5.64481E-09
1067.19910	5.62761E-09
1067.32361	5.61050E-09
1067.44800	5.59348E-09
1067.57251	5.57654E-09
1067.69690	5.55969E-09
1067.82141	5.54293E-09
1067.94580	5.52626E-09
1068.07031	5.50967E-09
1068.19470	5.49317E-09
1068.31921	5.47676E-09
1068.44360	5.46042E-09
1068.56812	5.44417E-09
1068.69263	5.42801E-09
1068.81702	5.41193E-09
1068.94153	5.39592E-09
1069.06592	5.38000E-09
1069.19043	5.36416E-09
1069.31482	5.34840E-09
1069.43933	5.33271E-09
1069.56372	5.31710E-09
1069.68823	5.30157E-09
1069.81262	5.28613E-09
1069.93713	5.27075E-09
1070.06152	5.25546E-09
1070.18604	5.24025E-09
1070.31043	5.22511E-09
1070.43494	5.21003E-09
1070.55945	5.19505E-09
1070.68384	5.18013E-09
1070.80835	5.16529E-09
1070.93274	5.15053E-09
1071.05725	5.13584E-09
1071.18164	5.12122E-09
1071.30615	5.10667E-09
1071.43054	5.09220E-09
1071.55505	5.07780E-09
1071.67944	5.06348E-09
1071.80396	5.04922E-09
1071.92835	5.03503E-09
1072.05286	5.02093E-09
1072.17725	5.00689E-09
1072.30176	4.99293E-09
1072.42627	4.97903E-09
1072.55066	4.96521E-09
1072.67517	4.95145E-09
1072.79956	4.93778E-09
1072.92407	4.92417E-09
1073.04846	4.91064E-09
1073.17297	4.89717E-09
1073.29736	4.88378E-09
1073.42188	4.87045E-09
1073.54627	4.85720E-09
1073.67078	4.84403E-09
1073.79517	4.83092E-09
1073.91968	4.81788E-09
1074.04407	4.80491E-09
1074.16858	4.79202E-09
1074.29309	4.77920E-09
1074.41748	4.76645E-09
1074.54199	4.75376E-09
1074.66638	4.74116E-09
1074.79089	4.72861E-09
1074.91528	4.71615E-09
1075.03980	4.70375E-09
1075.16419	4.69143E-09
1075.28870	4.67917E-09
1075.41309	4.66699E-09
1075.53760	4.65488E-09
1075.66199	4.64283E-09
1075.78650	4.63086E-09
1075.91089	4.61897E-09
1076.03540	4.60713E-09
1076.15979	4.59538E-09
1076.28430	4.58370E-09
1076.40881	4.57209E-09
1076.53320	4.56054E-09
1076.65772	4.54907E-09
1076.78210	4.53767E-09
1076.90662	4.52634E-09
1077.03101	4.51508E-09
1077.15552	4.50389E-09
1077.27991	4.49278E-09
1077.40442	4.48173E-09
1077.52881	4.47075E-09
1077.65332	4.45984E-09
1077.77771	4.44900E-09
1077.90222	4.43823E-09
1078.02661	4.42753E-09
1078.15112	4.41690E-09
1078.27564	4.40635E-09
1078.40002	4.39585E-09
1078.52454	4.38543E-09
1078.64893	4.37508E-09
1078.77344	4.36480E-09
1078.89783	4.35458E-09
1079.02234	4.34443E-09
1079.14673	4.33434E-09
1079.27124	4.32433E-09
1079.39563	4.31438E-09
1079.52014	4.30450E-09
1079.64453	4.29468E-09
1079.76904	4.28493E-09
1079.89343	4.27524E-09
1080.01794	4.26562E-09
1080.14246	4.25606E-09
1080.26685	4.24657E-09
1080.39136	4.23714E-09
1080.51575	4.22778E-09
1080.64026	4.21847E-09
1080.76465	4.20924E-09
1080.88916	4.20005E-09
1081.01355	4.19094E-09
1081.13806	4.18188E-09
1081.26245	4.17288E-09
1081.38696	4.16394E-09
1081.51135	4.15507E-09
1081.63586	4.14625E-09
1081.76025	4.13748E-09
1081.88477	4.12877E-09
1082.00928	4.12013E-09
1082.13367	4.11154E-09
1082.25818	4.10300E-09
1082.38257	4.09452E-09
1082.50708	4.08609E-09
1082.63147	4.07772E-09
1082.75598	4.06940E-09
1082.88037	4.06113E-09
1083.00488	4.05292E-09
1083.12927	4.04476E-09
1083.25378	4.03665E-09
1083.37817	4.02859E-09
1083.50269	4.02058E-09
1083.62708	4.01262E-09
1083.75159	4.00471E-09
1083.87610	3.99684E-09
1084.00049	3.98903E-09
1084.12500	3.98126E-09
1084.24939	3.97354E-09
1084.37390	3.96587E-09
1084.49829	3.95824E-09
1084.62280	3.95066E-09
1084.74719	3.94312E-09
1084.87170	3.93562E-09
1084.99609	3.92817E-09
1085.12061	3.92076E-09
1085.24500	3.91340E-09
1085.36951	3.90607E-09
1085.49390	3.89879E-09
1085.61841	3.89155E-09
1085.74292	3.88435E-09
1085.86731	3.87719E-09
1085.99182	3.87008E-09
1086.11621	3.86300E-09
1086.24072	3.85596E-09
1086.36511	3.84896E-09
1086.48962	3.84200E-09
1086.61401	3.83508E-09
1086.73853	3.82820E-09
1086.86292	3.82135E-09
1086.98743	3.81455E-09
1087.11182	3.80777E-09
1087.23633	3.80104E-09
1087.36072	3.79435E-09
1087.48523	3.78769E-09
1087.60974	3.78107E-09
1087.73413	3.77448E-09
1087.85864	3.76793E-09
1087.98303	3.76141E-09
1088.10754	3.75493E-09
1088.23193	3.74849E-09
1088.35645	3.74209E-09
1088.48084	3.73572E-09
1088.60535	3.72938E-09
1088.72974	3.72308E-09
1088.85425	3.71682E-09
1088.97864	3.71059E-09
1089.10315	3.70439E-09
1089.22754	3.69824E-09
1089.35205	3.69211E-09
1089.47656	3.68603E-09
1089.60095	3.67998E-09
1089.72546	3.67396E-09
1089.84985	3.66798E-09
1089.97437	3.66203E-09
1090.09876	3.65612E-09
1090.22327	3.65024E-09
1090.34766	3.64440E-09
1090.47217	3.63859E-09
1090.59656	3.63283E-09
1090.72107	3.62709E-09
1090.84546	3.62139E-09
1090.96997	3.61573E-09
1091.09436	3.61011E-09
1091.21887	3.60452E-09
1091.34338	3.59896E-09
1091.46777	3.59344E-09
1091.59229	3.58796E-09
1091.71668	3.58252E-09
1091.84119	3.57711E-09
1091.96558	3.57174E-09
1092.09009	3.56640E-09
1092.21448	3.56111E-09
1092.33899	3.55585E-09
1092.46338	3.55062E-09
1092.58789	3.54544E-09
1092.71228	3.54029E-09
1092.83679	3.53517E-09
1092.96118	3.53010E-09
1093.08569	3.52506E-09
1093.21021	3.52006E-09
1093.33460	3.51510E-09
1093.45911	3.51017E-09
1093.58350	3.50529E-09
1093.70801	3.50044E-09
1093.83240	3.49563E-09
1093.95691	3.49085E-09
1094.08130	3.48612E-09
1094.20581	3.48142E-09
1094.33020	3.47676E-09
1094.45471	3.47213E-09
1094.57910	3.46755E-09
1094.70361	3.46300E-09
1094.82800	3.45849E-09
1094.95252	3.45402E-09
1095.07703	3.44958E-09
1095.20142	3.44518E-09
1095.32593	3.44082E-09
1095.45032	3.43650E-09
1095.57483	3.43221E-09
1095.69922	3.42796E-09
1095.82373	3.42375E-09
1095.94812	3.41957E-09
1096.07263	3.41543E-09
1096.19702	3.41133E-09
1096.32153	3.40726E-09
1096.44592	3.40323E-09
1096.57044	3.39923E-09
1096.69482	3.39527E-09
1096.81934	3.39135E-09
1096.94385	3.38745E-09
1097.06824	3.38360E-09
1097.19275	3.37978E-09
1097.31714	3.37599E-09
1097.44165	3.37224E-09
1097.56604	3.36852E-09
1097.69055	3.36483E-09
1097.81494	3.36117E-09
1097.93945	3.35755E-09
1098.06384	3.35396E-09
1098.18835	3.35040E-09
1098.31274	3.34687E-09
1098.43726	3.34338E-09
1098.56165	3.33991E-09
1098.68616	3.33648E-09
1098.81055	3.33308E-09
1098.93506	3.32971E-09
1099.05957	3.32636E-09
1099.18396	3.32305E-09
1099.30847	3.31976E-09
1099.43286	3.31650E-09
1099.55737	3.31327E-09
1099.68176	3.31007E-09
1099.80627	3.30689E-09
1099.93066	3.30374E-09
1100.05518	3.30062E-09
1100.17957	3.29752E-09
1100.30408	3.29444E-09
1100.42847	3.29139E-09
1100.55298	3.28837E-09
1100.67737	3.28537E-09
1100.80188	3.28239E-09
1100.92639	3.27944E-09
1101.05078	3.27652E-09
1101.17529	3.27361E-09
1101.29968	3.27072E-09
1101.42419	3.26786E-09
1101.54858	3.26502E-09
1101.67310	3.26220E-09
1101.79749	3.25940E-09
1101.92200	3.25662E-09
1102.04639	3.25387E-09
1102.17090	3.25113E-09
1102.29529	3.24841E-09
1102.41980	3.24571E-09
1102.54419	3.24303E-09
1102.66870	3.24036E-09
1102.79321	3.23772E-09
1102.91760	3.23509E-09
1103.04211	3.23248E-09
1103.16650	3.22989E-09
1103.29102	3.22732E-09
1103.41541	3.22476E-09
1103.53992	3.22221E-09
1103.66431	3.21969E-09
1103.78882	3.21718E-09
1103.91321	3.21469E-09
1104.03772	3.21221E-09
1104.16211	3.20974E-09
1104.28662	3.20730E-09
1104.41101	3.20486E-09
1104.53552	3.20245E-09
1104.66003	3.20005E-09
1104.78442	3.19766E-09
1104.90894	3.19528E-09
1105.03333	3.19293E-09
1105.15784	3.19058E-09
1105.28223	3.18825E-09
1105.40674	3.18593E-09
1105.53113	3.18363E-09
1105.65564	3.18135E-09
1105.78003	3.17907E-09
1105.90454	3.17681E-09
1106.02893	3.17457E-09
1106.15344	3.17233E-09
1106.27783	3.17012E-09
1106.40234	3.16791E-09
1106.52686	3.16572E-09
1106.65125	3.16354E-09
1106.77576	3.16138E-09
1106.90015	3.15923E-09
1107.02466	3.15709E-09
1107.14905	3.15497E-09
1107.27356	3.15286E-09
1107.39795	3.15076E-09
1107.52246	3.14868E-09
1107.64685	3.14661E-09
1107.77136	3.14456E-09
1107.89575	3.14252E-09
1108.02026	3.14049E-09
1108.14465	3.13848E-09
1108.26917	3.13648E-09
1108.39368	3.13450E-09
1108.51807	3.13253E-09
1108.64258	3.13057E-09
1108.76697	3.12863E-09
1108.89148	3.12670E-09
1109.01587	3.12479E-09
1109.14038	3.12288E-09
1109.26477	3.12100E-09
1109.38928	3.11912E-09
1109.51367	3.11726E-09
1109.63818	3.11542E-09
1109.76257	3.11359E-09
1109.88709	3.11177E-09
1110.01148	3.10997E-09
1110.13599	3.10819E-09
1110.26050	3.10641E-09
1110.38489	3.10465E-09
1110.50940	3.10291E-09
1110.63379	3.10118E-09
1110.75830	3.09946E-09
1110.88269	3.09776E-09
1111.00720	3.09607E-09
1111.13159	3.09439E-09
1111.25610	3.09273E-09
1111.38049	3.09108E-09
1111.50501	3.08945E-09
1111.62940	3.08783E-09
1111.75391	3.08622E-09
1111.87830	3.08462E-09
1112.00281	3.08305E-09
1112.12732	3.08148E-09
1112.25171	3.07992E-09
1112.37622	3.07838E-09
1112.50061	3.07685E-09
1112.62512	3.07534E-09
1112.74951	3.07383E-09
1112.87402	3.07234E-09
1112.99841	3.07086E-09
1113.12293	3.06939E-09
1113.24731	3.06794E-09
1113.37183	3.06649E-09
1113.49622	3.06506E-09
1113.62073	3.06364E-09
1113.74512	3.06223E-09
1113.86963	3.06083E-09
1113.99414	3.05944E-09
1114.11853	3.05806E-09
1114.24304	3.05669E-09
1114.36743	3.05533E-09
1114.49194	3.05398E-09
1114.61633	3.05263E-09
1114.74085	3.05130E-09
1114.86523	3.04998E-09
1114.98975	3.04867E-09
1115.11414	3.04736E-09
1115.23865	3.04606E-09
1115.36304	3.04477E-09
1115.48755	3.04349E-09
1115.61194	3.04221E-09
1115.73645	3.04095E-09
1115.86096	3.03968E-09
1115.98535	3.03843E-09
1116.10986	3.03718E-09
1116.23425	3.03594E-09
1116.35877	3.03470E-09
1116.48315	3.03347E-09
1116.60767	3.03225E-09
1116.73206	3.03103E-09
1116.85657	3.02981E-09
1116.98096	3.02860E-09
1117.10547	3.02740E-09
1117.22986	3.02619E-09
1117.35437	3.02499E-09
1117.47876	3.02380E-09
1117.60327	3.02261E-09
1117.72778	3.02142E-09
1117.85217	3.02023E-09
1117.97669	3.01905E-09
1118.10107	3.01787E-09
1118.22559	3.01670E-09
1118.34998	3.01553E-09
1118.47449	3.01436E-09
1118.59888	3.01319E-09
1118.72339	3.01202E-09
1118.84778	3.01086E-09
1118.97229	3.00969E-09
1119.09668	3.00854E-09
1119.22119	3.00738E-09
1119.34558	3.00622E-09
1119.47009	3.00506E-09
1119.59448	3.00391E-09
1119.71899	3.00275E-09
1119.84351	3.00160E-09
1119.96790	3.00045E-09
1120.09241	2.99930E-09
1120.21680	2.99816E-09
1120.34131	2.99701E-09
1120.46570	2.99586E-09
1120.59021	2.99472E-09
1120.71460	2.99358E-09
1120.83911	2.99244E-09
1120.96350	2.99129E-09
1121.08801	2.99015E-09
1121.21240	2.98902E-09
1121.33691	2.98788E-09
1121.46130	2.98674E-09
1121.58582	2.98561E-09
1121.71033	2.98448E-09
1121.83472	2.98335E-09
1121.95923	2.98223E-09
1122.08362	2.98110E-09
1122.20813	2.97998E-09
1122.33252	2.97885E-09
1122.45703	2.97774E-09
1122.58142	2.97662E-09
1122.70593	2.97551E-09
1122.83032	2.97439E-09
1122.95483	2.97329E-09
1123.07922	2.97218E-09
1123.20374	2.97108E-09
1123.32813	2.96998E-09
1123.45264	2.96888E-09
1123.57715	2.96779E-09
1123.70154	2.96670E-09
1123.82605	2.96562E-09
1123.95044	2.96454E-09
1124.07495	2.96346E-09
1124.19934	2.96239E-09
1124.32385	2.96132E-09
1124.44824	2.96026E-09
1124.57275	2.95920E-09
1124.69714	2.95815E-09
1124.82166	2.95710E-09
1124.94605	2.95606E-09
1125.07056	2.95502E-09
1125.19495	2.95399E-09
1125.31946	2.95296E-09
1125.44397	2.95194E-09
1125.56836	2.95092E-09
1125.69287	2.94991E-09
1125.81726	2.94891E-09
1125.94177	2.94791E-09
1126.06616	2.94691E-09
1126.19067	2.94593E-09
1126.31506	2.94495E-09
1126.43958	2.94398E-09
1126.56397	2.94301E-09
1126.68848	2.94205E-09
1126.81287	2.94109E-09
1126.93738	2.94014E-09
1127.06177	2.93920E-09
1127.18628	2.93827E-09
1127.31079	2.93734E-09
1127.43518	2.93641E-09
