Wavenumber	NESR 2.85 cm-1
566.48157	1.47036E-07
566.61987	1.45487E-07
566.75818	1.43080E-07
566.89648	1.40022E-07
567.03479	1.36527E-07
567.17310	1.32786E-07
567.31140	1.28948E-07
567.44965	1.25120E-07
567.58795	1.21370E-07
567.72626	1.17742E-07
567.86456	1.14255E-07
568.00287	1.10919E-07
568.14117	1.07733E-07
568.27948	1.04693E-07
568.41779	1.01793E-07
568.55609	9.90242E-08
568.69440	9.63793E-08
568.83270	9.38501E-08
568.97101	9.14288E-08
569.10931	8.91088E-08
569.24762	8.68831E-08
569.38586	8.47463E-08
569.52417	8.26926E-08
569.66248	8.07173E-08
569.80078	7.88158E-08
569.93909	7.69836E-08
570.07739	7.52173E-08
570.21570	7.35129E-08
570.35400	7.18674E-08
570.49231	7.02778E-08
570.63062	6.87411E-08
570.76892	6.72548E-08
570.90723	6.58166E-08
571.04553	6.44240E-08
571.18378	6.30752E-08
571.32208	6.17682E-08
571.46039	6.05011E-08
571.59869	5.92723E-08
571.73700	5.80802E-08
571.87531	5.69233E-08
572.01361	5.58002E-08
572.15192	5.47096E-08
572.29022	5.36502E-08
572.42853	5.26210E-08
572.56683	5.16207E-08
572.70514	5.06484E-08
572.84345	4.97030E-08
572.98175	4.87836E-08
573.12000	4.78894E-08
573.25830	4.70195E-08
573.39661	4.61732E-08
573.53491	4.53495E-08
573.67322	4.45479E-08
573.81152	4.37675E-08
573.94983	4.30078E-08
574.08814	4.22681E-08
574.22644	4.15478E-08
574.36475	4.08463E-08
574.50305	4.01630E-08
574.64136	3.94973E-08
574.77966	3.88488E-08
574.91797	3.82170E-08
575.05621	3.76013E-08
575.19452	3.70012E-08
575.33283	3.64164E-08
575.47113	3.58463E-08
575.60944	3.52905E-08
575.74774	3.47487E-08
575.88605	3.42204E-08
576.02435	3.37053E-08
576.16266	3.32028E-08
576.30096	3.27128E-08
576.43927	3.22348E-08
576.57758	3.17685E-08
576.71588	3.13136E-08
576.85413	3.08697E-08
576.99243	3.04365E-08
577.13074	3.00137E-08
577.26904	2.96010E-08
577.40735	2.91982E-08
577.54565	2.88050E-08
577.68396	2.84209E-08
577.82227	2.80459E-08
577.96057	2.76797E-08
578.09888	2.73220E-08
578.23718	2.69725E-08
578.37549	2.66311E-08
578.51379	2.62974E-08
578.65210	2.59713E-08
578.79034	2.56526E-08
578.92865	2.53411E-08
579.06696	2.50364E-08
579.20526	2.47385E-08
579.34357	2.44472E-08
579.48187	2.41622E-08
579.62018	2.38834E-08
579.75848	2.36107E-08
579.89679	2.33437E-08
580.03510	2.30825E-08
580.17340	2.28267E-08
580.31171	2.25764E-08
580.45001	2.23312E-08
580.58826	2.20910E-08
580.72656	2.18559E-08
580.86487	2.16254E-08
581.00317	2.13996E-08
581.14148	2.11783E-08
581.27979	2.09613E-08
581.41809	2.07487E-08
581.55640	2.05403E-08
581.69470	2.03358E-08
581.83301	2.01352E-08
581.97131	1.99385E-08
582.10962	1.97455E-08
582.24793	1.95560E-08
582.38623	1.93700E-08
582.52448	1.91875E-08
582.66278	1.90082E-08
582.80109	1.88321E-08
582.93939	1.86592E-08
583.07770	1.84893E-08
583.21600	1.83224E-08
583.35431	1.81584E-08
583.49262	1.79972E-08
583.63092	1.78387E-08
583.76923	1.76829E-08
583.90753	1.75297E-08
584.04584	1.73791E-08
584.18414	1.72308E-08
584.32239	1.70850E-08
584.46069	1.69416E-08
584.59900	1.68004E-08
584.73731	1.66614E-08
584.87561	1.65247E-08
585.01392	1.63900E-08
585.15222	1.62575E-08
585.29053	1.61269E-08
585.42883	1.59984E-08
585.56714	1.58717E-08
585.70544	1.57470E-08
585.84375	1.56241E-08
585.98206	1.55030E-08
586.12036	1.53837E-08
586.25861	1.52660E-08
586.39691	1.51501E-08
586.53522	1.50358E-08
586.67352	1.49232E-08
586.81183	1.48121E-08
586.95013	1.47025E-08
587.08844	1.45945E-08
587.22675	1.44880E-08
587.36505	1.43830E-08
587.50336	1.42793E-08
587.64166	1.41771E-08
587.77997	1.40763E-08
587.91827	1.39768E-08
588.05652	1.38786E-08
588.19482	1.37818E-08
588.33313	1.36862E-08
588.47144	1.35919E-08
588.60974	1.34988E-08
588.74805	1.34069E-08
588.88635	1.33162E-08
589.02466	1.32267E-08
589.16296	1.31384E-08
589.30127	1.30512E-08
589.43958	1.29651E-08
589.57788	1.28801E-08
589.71619	1.27962E-08
589.85449	1.27133E-08
589.99274	1.26316E-08
590.13104	1.25508E-08
590.26935	1.24711E-08
590.40765	1.23924E-08
590.54596	1.23147E-08
590.68427	1.22380E-08
590.82257	1.21622E-08
590.96088	1.20873E-08
591.09918	1.20134E-08
591.23749	1.19405E-08
591.37579	1.18684E-08
591.51410	1.17972E-08
591.65241	1.17270E-08
591.79071	1.16576E-08
591.92896	1.15890E-08
592.06726	1.15214E-08
592.20557	1.14545E-08
592.34387	1.13885E-08
592.48218	1.13233E-08
592.62048	1.12589E-08
592.75879	1.11953E-08
592.89710	1.11325E-08
593.03540	1.10705E-08
593.17371	1.10093E-08
593.31201	1.09488E-08
593.45032	1.08891E-08
593.58862	1.08301E-08
593.72687	1.07719E-08
593.86517	1.07143E-08
594.00348	1.06575E-08
594.14179	1.06014E-08
594.28009	1.05460E-08
594.41840	1.04913E-08
594.55670	1.04372E-08
594.69501	1.03839E-08
594.83331	1.03312E-08
594.97162	1.02791E-08
595.10992	1.02277E-08
595.24823	1.01769E-08
595.38654	1.01268E-08
595.52484	1.00773E-08
595.66309	1.00285E-08
595.80139	9.98023E-09
595.93970	9.93259E-09
596.07800	9.88555E-09
596.21631	9.83911E-09
596.35461	9.79326E-09
596.49292	9.74799E-09
596.63123	9.70330E-09
596.76953	9.65917E-09
596.90784	9.61562E-09
597.04614	9.57262E-09
597.18445	9.53020E-09
597.32275	9.48832E-09
597.46100	9.44697E-09
597.59930	9.40617E-09
597.73761	9.36591E-09
597.87592	9.32618E-09
598.01422	9.28698E-09
598.15253	9.24830E-09
598.29083	9.21013E-09
598.42914	9.17249E-09
598.56744	9.13534E-09
598.70575	9.09869E-09
598.84406	9.06255E-09
598.98236	9.02691E-09
599.12067	8.99177E-09
599.25897	8.95711E-09
599.39722	8.92292E-09
599.53552	8.88922E-09
599.67383	8.85600E-09
599.81213	8.82326E-09
599.95044	8.79098E-09
600.08875	8.75916E-09
600.22705	8.72781E-09
600.36536	8.69693E-09
600.50366	8.66649E-09
600.64197	8.63650E-09
600.78027	8.60698E-09
600.91858	8.57789E-09
601.05689	8.54925E-09
601.19513	8.52105E-09
601.33344	8.49329E-09
601.47174	8.46596E-09
601.61005	8.43907E-09
601.74835	8.41261E-09
601.88666	8.38657E-09
602.02496	8.36097E-09
602.16327	8.33577E-09
602.30158	8.31101E-09
602.43988	8.28665E-09
602.57819	8.26271E-09
602.71649	8.23917E-09
602.85480	8.21604E-09
602.99310	8.19331E-09
603.13135	8.17098E-09
603.26965	8.14904E-09
603.40796	8.12750E-09
603.54627	8.10635E-09
603.68457	8.08559E-09
603.82288	8.06521E-09
603.96118	8.04521E-09
604.09949	8.02560E-09
604.23779	8.00635E-09
604.37610	7.98748E-09
604.51440	7.96897E-09
604.65271	7.95082E-09
604.79102	7.93303E-09
604.92932	7.91560E-09
605.06757	7.89852E-09
605.20587	7.88180E-09
605.34418	7.86541E-09
605.48248	7.84937E-09
605.62079	7.83367E-09
605.75909	7.81830E-09
605.89740	7.80327E-09
606.03571	7.78854E-09
606.17401	7.77414E-09
606.31232	7.76005E-09
606.45062	7.74627E-09
606.58893	7.73280E-09
606.72723	7.71964E-09
606.86548	7.70677E-09
607.00378	7.69419E-09
607.14209	7.68190E-09
607.28040	7.66989E-09
607.41870	7.65817E-09
607.55701	7.64671E-09
607.69531	7.63553E-09
607.83362	7.62460E-09
607.97192	7.61394E-09
608.11023	7.60353E-09
608.24854	7.59338E-09
608.38684	7.58346E-09
608.52515	7.57378E-09
608.66345	7.56433E-09
608.80170	7.55512E-09
608.94000	7.54612E-09
609.07831	7.53735E-09
609.21661	7.52879E-09
609.35492	7.52043E-09
609.49323	7.51228E-09
609.63153	7.50433E-09
609.76984	7.49657E-09
609.90814	7.48900E-09
610.04645	7.48161E-09
610.18475	7.47440E-09
610.32306	7.46737E-09
610.46137	7.46050E-09
610.59961	7.45380E-09
610.73792	7.44725E-09
610.87622	7.44086E-09
611.01453	7.43461E-09
611.15283	7.42851E-09
611.29114	7.42256E-09
611.42944	7.41674E-09
611.56775	7.41105E-09
611.70606	7.40549E-09
611.84436	7.40005E-09
611.98267	7.39474E-09
612.12097	7.38955E-09
612.25928	7.38447E-09
612.39758	7.37950E-09
612.53583	7.37462E-09
612.67413	7.36986E-09
612.81244	7.36520E-09
612.95075	7.36063E-09
613.08905	7.35617E-09
613.22736	7.35180E-09
613.36566	7.34752E-09
613.50397	7.34332E-09
613.64227	7.33921E-09
613.78058	7.33518E-09
613.91888	7.33124E-09
614.05719	7.32738E-09
614.19550	7.32358E-09
614.33374	7.31988E-09
614.47205	7.31625E-09
614.61035	7.31270E-09
614.74866	7.30921E-09
614.88696	7.30581E-09
615.02527	7.30247E-09
615.16357	7.29921E-09
615.30188	7.29601E-09
615.44019	7.29290E-09
615.57849	7.28985E-09
615.71680	7.28688E-09
615.85510	7.28398E-09
615.99341	7.28116E-09
616.13171	7.27841E-09
616.26996	7.27573E-09
616.40826	7.27314E-09
616.54657	7.27061E-09
616.68488	7.26817E-09
616.82318	7.26581E-09
616.96149	7.26354E-09
617.09979	7.26134E-09
617.23810	7.25923E-09
617.37640	7.25720E-09
617.51471	7.25527E-09
617.65302	7.25342E-09
617.79132	7.25166E-09
617.92963	7.24999E-09
618.06787	7.24842E-09
618.20618	7.24694E-09
618.34448	7.24555E-09
618.48279	7.24429E-09
618.62109	7.24312E-09
618.75940	7.24205E-09
618.89771	7.24110E-09
619.03601	7.24025E-09
619.17432	7.23950E-09
619.31262	7.23887E-09
619.45093	7.23834E-09
619.58923	7.23793E-09
619.72754	7.23764E-09
619.86585	7.23746E-09
620.00409	7.23739E-09
620.14240	7.23745E-09
620.28070	7.23763E-09
620.41901	7.23792E-09
620.55731	7.23834E-09
620.69562	7.23888E-09
620.83392	7.23954E-09
620.97223	7.24034E-09
621.11054	7.24125E-09
621.24884	7.24229E-09
621.38715	7.24346E-09
621.52545	7.24475E-09
621.66376	7.24617E-09
621.80206	7.24772E-09
621.94031	7.24940E-09
622.07861	7.25120E-09
622.21692	7.25312E-09
622.35523	7.25517E-09
622.49353	7.25734E-09
622.63184	7.25963E-09
622.77014	7.26205E-09
622.90845	7.26458E-09
623.04675	7.26723E-09
623.18506	7.27000E-09
623.32336	7.27288E-09
623.46167	7.27587E-09
623.59998	7.27898E-09
623.73822	7.28219E-09
623.87653	7.28551E-09
624.01483	7.28894E-09
624.15314	7.29246E-09
624.29144	7.29608E-09
624.42975	7.29979E-09
624.56805	7.30360E-09
624.70636	7.30750E-09
624.84467	7.31147E-09
624.98297	7.31553E-09
625.12128	7.31967E-09
625.25958	7.32388E-09
625.39789	7.32817E-09
625.53619	7.33252E-09
625.67444	7.33693E-09
625.81274	7.34139E-09
625.95105	7.34591E-09
626.08936	7.35048E-09
626.22766	7.35509E-09
626.36597	7.35973E-09
626.50427	7.36442E-09
626.64258	7.36913E-09
626.78088	7.37386E-09
626.91919	7.37861E-09
627.05750	7.38338E-09
627.19580	7.38816E-09
627.33411	7.39295E-09
627.47235	7.39774E-09
627.61066	7.40254E-09
627.74896	7.40732E-09
627.88727	7.41210E-09
628.02557	7.41686E-09
628.16388	7.42160E-09
628.30219	7.42631E-09
628.44049	7.43100E-09
628.57880	7.43565E-09
628.71710	7.44027E-09
628.85541	7.44484E-09
628.99371	7.44938E-09
629.13202	7.45386E-09
629.27033	7.45829E-09
629.40857	7.46268E-09
629.54688	7.46700E-09
629.68518	7.47125E-09
629.82349	7.47545E-09
629.96179	7.47957E-09
630.10010	7.48364E-09
630.23840	7.48762E-09
630.37671	7.49153E-09
630.51502	7.49536E-09
630.65332	7.49911E-09
630.79163	7.50278E-09
630.92993	7.50638E-09
631.06824	7.50989E-09
631.20648	7.51331E-09
631.34479	7.51666E-09
631.48309	7.51993E-09
631.62140	7.52310E-09
631.75971	7.52619E-09
631.89801	7.52920E-09
632.03632	7.53212E-09
632.17462	7.53497E-09
632.31293	7.53773E-09
632.45123	7.54041E-09
632.58954	7.54301E-09
632.72784	7.54554E-09
632.86615	7.54799E-09
633.00446	7.55036E-09
633.14270	7.55266E-09
633.28101	7.55489E-09
633.41931	7.55705E-09
633.55762	7.55914E-09
633.69592	7.56117E-09
633.83423	7.56315E-09
633.97253	7.56507E-09
634.11084	7.56692E-09
634.24915	7.56872E-09
634.38745	7.57048E-09
634.52576	7.57219E-09
634.66406	7.57386E-09
634.80237	7.57549E-09
634.94067	7.57708E-09
635.07892	7.57865E-09
635.21722	7.58019E-09
635.35553	7.58171E-09
635.49384	7.58321E-09
635.63214	7.58469E-09
635.77045	7.58615E-09
635.90875	7.58760E-09
636.04706	7.58905E-09
636.18536	7.59050E-09
636.32367	7.59195E-09
636.46198	7.59340E-09
636.60028	7.59487E-09
636.73859	7.59635E-09
636.87683	7.59784E-09
637.01514	7.59934E-09
637.15344	7.60086E-09
637.29175	7.60242E-09
637.43005	7.60400E-09
637.56836	7.60561E-09
637.70667	7.60725E-09
637.84497	7.60893E-09
637.98328	7.61064E-09
638.12158	7.61240E-09
638.25989	7.61420E-09
638.39819	7.61605E-09
638.53650	7.61795E-09
638.67481	7.61990E-09
638.81305	7.62189E-09
638.95136	7.62395E-09
639.08966	7.62606E-09
639.22797	7.62822E-09
639.36627	7.63044E-09
639.50458	7.63271E-09
639.64288	7.63504E-09
639.78119	7.63743E-09
639.91950	7.63988E-09
640.05780	7.64238E-09
640.19611	7.64495E-09
640.33441	7.64756E-09
640.47272	7.65025E-09
640.61096	7.65298E-09
640.74927	7.65577E-09
640.88757	7.65861E-09
641.02588	7.66152E-09
641.16419	7.66448E-09
641.30249	7.66749E-09
641.44080	7.67056E-09
641.57910	7.67367E-09
641.71741	7.67683E-09
641.85571	7.68004E-09
641.99402	7.68329E-09
642.13232	7.68659E-09
642.27063	7.68992E-09
642.40894	7.69329E-09
642.54718	7.69669E-09
642.68549	7.70013E-09
642.82379	7.70360E-09
642.96210	7.70708E-09
643.10040	7.71060E-09
643.23871	7.71414E-09
643.37701	7.71770E-09
643.51532	7.72127E-09
643.65363	7.72486E-09
643.79193	7.72845E-09
643.93024	7.73205E-09
644.06854	7.73566E-09
644.20685	7.73927E-09
644.34509	7.74287E-09
644.48340	7.74647E-09
644.62170	7.75007E-09
644.76001	7.75365E-09
644.89832	7.75723E-09
645.03662	7.76078E-09
645.17493	7.76431E-09
645.31323	7.76783E-09
645.45154	7.77132E-09
645.58984	7.77478E-09
645.72815	7.77821E-09
645.86646	7.78160E-09
646.00476	7.78496E-09
646.14307	7.78828E-09
646.28131	7.79156E-09
646.41962	7.79480E-09
646.55792	7.79800E-09
646.69623	7.80115E-09
646.83453	7.80425E-09
646.97284	7.80731E-09
647.11115	7.81031E-09
647.24945	7.81325E-09
647.38776	7.81615E-09
647.52606	7.81899E-09
647.66437	7.82176E-09
647.80267	7.82449E-09
647.94098	7.82716E-09
648.07922	7.82976E-09
648.21753	7.83230E-09
648.35584	7.83478E-09
648.49414	7.83720E-09
648.63245	7.83956E-09
648.77075	7.84186E-09
648.90906	7.84410E-09
649.04736	7.84627E-09
649.18567	7.84837E-09
649.32398	7.85042E-09
649.46228	7.85239E-09
649.60059	7.85431E-09
649.73889	7.85617E-09
649.87720	7.85797E-09
650.01544	7.85971E-09
650.15375	7.86140E-09
650.29205	7.86302E-09
650.43036	7.86459E-09
650.56867	7.86610E-09
650.70697	7.86756E-09
650.84528	7.86896E-09
650.98358	7.87030E-09
651.12189	7.87159E-09
651.26019	7.87283E-09
651.39850	7.87402E-09
651.53680	7.87516E-09
651.67511	7.87625E-09
651.81342	7.87729E-09
651.95166	7.87828E-09
652.08997	7.87923E-09
652.22827	7.88014E-09
652.36658	7.88100E-09
652.50488	7.88182E-09
652.64319	7.88260E-09
652.78149	7.88333E-09
652.91980	7.88403E-09
653.05811	7.88468E-09
653.19641	7.88530E-09
653.33472	7.88589E-09
653.47302	7.88643E-09
653.61133	7.88694E-09
653.74957	7.88742E-09
653.88788	7.88786E-09
654.02618	7.88827E-09
654.16449	7.88864E-09
654.30280	7.88897E-09
654.44110	7.88927E-09
654.57941	7.88954E-09
654.71771	7.88977E-09
654.85602	7.88996E-09
654.99432	7.89012E-09
655.13263	7.89024E-09
655.27094	7.89033E-09
655.40924	7.89038E-09
655.54755	7.89039E-09
655.68579	7.89037E-09
655.82410	7.89032E-09
655.96240	7.89023E-09
656.10071	7.89009E-09
656.23901	7.88992E-09
656.37732	7.88970E-09
656.51563	7.88944E-09
656.65393	7.88915E-09
656.79224	7.88880E-09
656.93054	7.88841E-09
657.06885	7.88798E-09
657.20715	7.88750E-09
657.34546	7.88696E-09
657.48370	7.88638E-09
657.62201	7.88574E-09
657.76032	7.88505E-09
657.89862	7.88431E-09
658.03693	7.88351E-09
658.17523	7.88266E-09
658.31354	7.88174E-09
658.45184	7.88076E-09
658.59015	7.87972E-09
658.72846	7.87862E-09
658.86676	7.87744E-09
659.00507	7.87621E-09
659.14337	7.87492E-09
659.28168	7.87355E-09
659.41992	7.87212E-09
659.55823	7.87062E-09
659.69653	7.86905E-09
659.83484	7.86741E-09
659.97315	7.86569E-09
660.11145	7.86389E-09
660.24976	7.86203E-09
660.38806	7.86008E-09
660.52637	7.85807E-09
660.66467	7.85598E-09
660.80298	7.85382E-09
660.94128	7.85158E-09
661.07959	7.84925E-09
661.21783	7.84686E-09
661.35614	7.84439E-09
661.49445	7.84184E-09
661.63275	7.83921E-09
661.77106	7.83652E-09
661.90936	7.83375E-09
662.04767	7.83091E-09
662.18597	7.82799E-09
662.32428	7.82501E-09
662.46259	7.82196E-09
662.60089	7.81884E-09
662.73920	7.81566E-09
662.87750	7.81241E-09
663.01581	7.80910E-09
663.15405	7.80573E-09
663.29236	7.80230E-09
663.43066	7.79881E-09
663.56897	7.79527E-09
663.70728	7.79167E-09
663.84558	7.78802E-09
663.98389	7.78432E-09
664.12219	7.78059E-09
664.26050	7.77680E-09
664.39880	7.77297E-09
664.53711	7.76910E-09
664.67542	7.76521E-09
664.81372	7.76128E-09
664.95203	7.75733E-09
665.09027	7.75334E-09
665.22858	7.74934E-09
665.36688	7.74531E-09
665.50519	7.74127E-09
665.64349	7.73721E-09
665.78180	7.73314E-09
665.92011	7.72907E-09
666.05841	7.72498E-09
666.19672	7.72090E-09
666.33502	7.71681E-09
666.47333	7.71273E-09
666.61163	7.70866E-09
666.74994	7.70459E-09
666.88818	7.70054E-09
667.02649	7.69651E-09
667.16480	7.69249E-09
667.30310	7.68849E-09
667.44141	7.68452E-09
667.57971	7.68057E-09
667.71802	7.67665E-09
667.85632	7.67276E-09
667.99463	7.66891E-09
668.13294	7.66508E-09
668.27124	7.66130E-09
668.40955	7.65756E-09
668.54785	7.65387E-09
668.68616	7.65021E-09
668.82440	7.64659E-09
668.96271	7.64303E-09
669.10101	7.63951E-09
669.23932	7.63604E-09
669.37763	7.63262E-09
669.51593	7.62924E-09
669.65424	7.62592E-09
669.79254	7.62264E-09
669.93085	7.61942E-09
670.06915	7.61626E-09
670.20746	7.61315E-09
670.34576	7.61009E-09
670.48407	7.60708E-09
670.62231	7.60413E-09
670.76062	7.60123E-09
670.89893	7.59837E-09
671.03723	7.59557E-09
671.17554	7.59282E-09
671.31384	7.59012E-09
671.45215	7.58747E-09
671.59045	7.58486E-09
671.72876	7.58229E-09
671.86707	7.57977E-09
672.00537	7.57730E-09
672.14368	7.57486E-09
672.28198	7.57246E-09
672.42029	7.57010E-09
672.55853	7.56778E-09
672.69684	7.56548E-09
672.83514	7.56322E-09
672.97345	7.56099E-09
673.11176	7.55878E-09
673.25006	7.55660E-09
673.38837	7.55444E-09
673.52667	7.55230E-09
673.66498	7.55018E-09
673.80328	7.54806E-09
673.94159	7.54597E-09
674.07990	7.54389E-09
674.21820	7.54180E-09
674.35645	7.53973E-09
674.49475	7.53766E-09
674.63306	7.53559E-09
674.77136	7.53351E-09
674.90967	7.53143E-09
675.04797	7.52934E-09
675.18628	7.52724E-09
675.32459	7.52513E-09
675.46289	7.52300E-09
675.60120	7.52084E-09
675.73950	7.51867E-09
675.87781	7.51648E-09
676.01611	7.51425E-09
676.15442	7.51200E-09
676.29266	7.50972E-09
676.43097	7.50740E-09
676.56928	7.50505E-09
676.70758	7.50267E-09
676.84589	7.50025E-09
676.98419	7.49780E-09
677.12250	7.49530E-09
677.26080	7.49276E-09
677.39911	7.49018E-09
677.53742	7.48755E-09
677.67572	7.48488E-09
677.81403	7.48216E-09
677.95233	7.47940E-09
678.09058	7.47658E-09
678.22888	7.47372E-09
678.36719	7.47081E-09
678.50549	7.46785E-09
678.64380	7.46484E-09
678.78210	7.46179E-09
678.92041	7.45869E-09
679.05872	7.45553E-09
679.19702	7.45233E-09
679.33533	7.44909E-09
679.47363	7.44580E-09
679.61194	7.44247E-09
679.75024	7.43908E-09
679.88855	7.43566E-09
680.02679	7.43219E-09
680.16510	7.42868E-09
680.30341	7.42514E-09
680.44171	7.42155E-09
680.58002	7.41792E-09
680.71832	7.41426E-09
680.85663	7.41057E-09
680.99493	7.40684E-09
681.13324	7.40309E-09
681.27155	7.39930E-09
681.40985	7.39549E-09
681.54816	7.39166E-09
681.68646	7.38781E-09
681.82477	7.38393E-09
681.96301	7.38004E-09
682.10132	7.37613E-09
682.23962	7.37221E-09
682.37793	7.36828E-09
682.51624	7.36434E-09
682.65454	7.36040E-09
682.79285	7.35645E-09
682.93115	7.35249E-09
683.06946	7.34854E-09
683.20776	7.34460E-09
683.34607	7.34066E-09
683.48438	7.33674E-09
683.62268	7.33281E-09
683.76093	7.32890E-09
683.89923	7.32501E-09
684.03754	7.32113E-09
684.17584	7.31726E-09
684.31415	7.31341E-09
684.45245	7.30959E-09
684.59076	7.30579E-09
684.72907	7.30202E-09
684.86737	7.29827E-09
685.00568	7.29455E-09
685.14398	7.29085E-09
685.28229	7.28719E-09
685.42059	7.28356E-09
685.55890	7.27996E-09
685.69714	7.27641E-09
685.83545	7.27288E-09
685.97376	7.26939E-09
686.11206	7.26595E-09
686.25037	7.26254E-09
686.38867	7.25917E-09
686.52698	7.25585E-09
686.66528	7.25256E-09
686.80359	7.24932E-09
686.94190	7.24612E-09
687.08020	7.24296E-09
687.21851	7.23985E-09
687.35681	7.23677E-09
687.49506	7.23374E-09
687.63336	7.23076E-09
687.77167	7.22781E-09
687.90997	7.22491E-09
688.04828	7.22204E-09
688.18658	7.21922E-09
688.32489	7.21644E-09
688.46320	7.21371E-09
688.60150	7.21101E-09
688.73981	7.20834E-09
688.87811	7.20572E-09
689.01642	7.20314E-09
689.15472	7.20059E-09
689.29303	7.19808E-09
689.43127	7.19562E-09
689.56958	7.19318E-09
689.70789	7.19077E-09
689.84619	7.18840E-09
689.98450	7.18606E-09
690.12280	7.18376E-09
690.26111	7.18148E-09
690.39941	7.17922E-09
690.53772	7.17700E-09
690.67603	7.17481E-09
690.81433	7.17264E-09
690.95264	7.17049E-09
691.09094	7.16837E-09
691.22919	7.16627E-09
691.36749	7.16419E-09
691.50580	7.16213E-09
691.64410	7.16010E-09
691.78241	7.15808E-09
