Wavenumber	NESR 2.85 cm-1
1019.53296	1.50203E-08
1019.65741	1.50107E-08
1019.78186	1.49977E-08
1019.90631	1.49813E-08
1020.03076	1.49615E-08
1020.15521	1.49384E-08
1020.27966	1.49121E-08
1020.40411	1.48827E-08
1020.52863	1.48502E-08
1020.65308	1.48147E-08
1020.77753	1.47765E-08
1020.90198	1.47356E-08
1021.02643	1.46921E-08
1021.15088	1.46461E-08
1021.27533	1.45980E-08
1021.39978	1.45476E-08
1021.52423	1.44953E-08
1021.64868	1.44411E-08
1021.77313	1.43851E-08
1021.89758	1.43277E-08
1022.02203	1.42687E-08
1022.14648	1.42084E-08
1022.27094	1.41469E-08
1022.39545	1.40843E-08
1022.51990	1.40208E-08
1022.64435	1.39563E-08
1022.76880	1.38912E-08
1022.89325	1.38253E-08
1023.01770	1.37589E-08
1023.14215	1.36920E-08
1023.26660	1.36246E-08
1023.39105	1.35569E-08
1023.51550	1.34889E-08
1023.63995	1.34206E-08
1023.76440	1.33523E-08
1023.88886	1.32837E-08
1024.01331	1.32152E-08
1024.13782	1.31466E-08
1024.26221	1.30781E-08
1024.38672	1.30095E-08
1024.51111	1.29411E-08
1024.63562	1.28728E-08
1024.76001	1.28047E-08
1024.88452	1.27367E-08
1025.00891	1.26689E-08
1025.13342	1.26013E-08
1025.25794	1.25340E-08
1025.38232	1.24669E-08
1025.50684	1.24001E-08
1025.63123	1.23336E-08
1025.75574	1.22673E-08
1025.88013	1.22014E-08
1026.00464	1.21358E-08
1026.12903	1.20705E-08
1026.25354	1.20056E-08
1026.37793	1.19410E-08
1026.50244	1.18768E-08
1026.62683	1.18128E-08
1026.75134	1.17493E-08
1026.87573	1.16862E-08
1027.00024	1.16234E-08
1027.12476	1.15610E-08
1027.24915	1.14989E-08
1027.37366	1.14373E-08
1027.49805	1.13760E-08
1027.62256	1.13152E-08
1027.74695	1.12547E-08
1027.87146	1.11947E-08
1027.99585	1.11350E-08
1028.12036	1.10757E-08
1028.24475	1.10169E-08
1028.36926	1.09584E-08
1028.49365	1.09003E-08
1028.61816	1.08426E-08
1028.74255	1.07854E-08
1028.86707	1.07285E-08
1028.99158	1.06720E-08
1029.11597	1.06160E-08
1029.24048	1.05603E-08
1029.36487	1.05051E-08
1029.48938	1.04503E-08
1029.61377	1.03958E-08
1029.73828	1.03418E-08
1029.86267	1.02881E-08
1029.98718	1.02349E-08
1030.11157	1.01821E-08
1030.23608	1.01296E-08
1030.36047	1.00775E-08
1030.48499	1.00259E-08
1030.60938	9.97461E-09
1030.73389	9.92373E-09
1030.85828	9.87323E-09
1030.98279	9.82312E-09
1031.10730	9.77338E-09
1031.23169	9.72404E-09
1031.35620	9.67507E-09
1031.48059	9.62648E-09
1031.60510	9.57826E-09
1031.72949	9.53041E-09
1031.85400	9.48292E-09
1031.97839	9.43580E-09
1032.10291	9.38904E-09
1032.22730	9.34264E-09
1032.35181	9.29660E-09
1032.47620	9.25091E-09
1032.60071	9.20556E-09
1032.72510	9.16057E-09
1032.84961	9.11591E-09
1032.97412	9.07160E-09
1033.09851	9.02761E-09
1033.22302	8.98395E-09
1033.34741	8.94064E-09
1033.47192	8.89764E-09
1033.59631	8.85496E-09
1033.72083	8.81261E-09
1033.84522	8.77056E-09
1033.96973	8.72883E-09
1034.09412	8.68740E-09
1034.21863	8.64626E-09
1034.34302	8.60543E-09
1034.46753	8.56490E-09
1034.59192	8.52465E-09
1034.71643	8.48469E-09
1034.84094	8.44502E-09
1034.96533	8.40561E-09
1035.08984	8.36649E-09
1035.21423	8.32764E-09
1035.33875	8.28905E-09
1035.46314	8.25073E-09
1035.58765	8.21266E-09
1035.71204	8.17485E-09
1035.83655	8.13729E-09
1035.96094	8.09998E-09
1036.08545	8.06291E-09
1036.20984	8.02608E-09
1036.33435	7.98949E-09
1036.45874	7.95313E-09
1036.58325	7.91700E-09
1036.70776	7.88110E-09
1036.83215	7.84541E-09
1036.95667	7.80994E-09
1037.08106	7.77469E-09
1037.20557	7.73966E-09
1037.32996	7.70483E-09
1037.45447	7.67021E-09
1037.57886	7.63579E-09
1037.70337	7.60156E-09
1037.82776	7.56754E-09
1037.95227	7.53370E-09
1038.07666	7.50006E-09
1038.20117	7.46660E-09
1038.32556	7.43333E-09
1038.45007	7.40024E-09
1038.57459	7.36732E-09
1038.69898	7.33458E-09
1038.82349	7.30202E-09
1038.94788	7.26963E-09
1039.07239	7.23741E-09
1039.19678	7.20535E-09
1039.32129	7.17346E-09
1039.44568	7.14173E-09
1039.57019	7.11016E-09
1039.69458	7.07876E-09
1039.81909	7.04750E-09
1039.94348	7.01641E-09
1040.06799	6.98546E-09
1040.19238	6.95467E-09
1040.31690	6.92404E-09
1040.44141	6.89355E-09
1040.56580	6.86321E-09
1040.69031	6.83302E-09
1040.81470	6.80297E-09
1040.93921	6.77306E-09
1041.06360	6.74330E-09
1041.18811	6.71369E-09
1041.31250	6.68421E-09
1041.43701	6.65487E-09
1041.56140	6.62567E-09
1041.68591	6.59661E-09
1041.81030	6.56769E-09
1041.93481	6.53891E-09
1042.05920	6.51027E-09
1042.18372	6.48176E-09
1042.30823	6.45339E-09
1042.43262	6.42515E-09
1042.55713	6.39706E-09
1042.68152	6.36909E-09
1042.80603	6.34126E-09
1042.93042	6.31356E-09
1043.05493	6.28600E-09
1043.17932	6.25857E-09
1043.30383	6.23128E-09
1043.42822	6.20412E-09
1043.55273	6.17710E-09
1043.67712	6.15021E-09
1043.80164	6.12345E-09
1043.92603	6.09684E-09
1044.05054	6.07035E-09
1044.17505	6.04399E-09
1044.29944	6.01777E-09
1044.42395	5.99168E-09
1044.54834	5.96574E-09
1044.67285	5.93991E-09
1044.79724	5.91423E-09
1044.92175	5.88868E-09
1045.04614	5.86327E-09
1045.17065	5.83799E-09
1045.29504	5.81285E-09
1045.41956	5.78784E-09
1045.54395	5.76297E-09
1045.66846	5.73823E-09
1045.79285	5.71363E-09
1045.91736	5.68916E-09
1046.04187	5.66483E-09
1046.16626	5.64063E-09
1046.29077	5.61657E-09
1046.41516	5.59265E-09
1046.53967	5.56885E-09
1046.66406	5.54520E-09
1046.78857	5.52168E-09
1046.91296	5.49829E-09
1047.03748	5.47504E-09
1047.16187	5.45193E-09
1047.28638	5.42895E-09
1047.41077	5.40610E-09
1047.53528	5.38339E-09
1047.65967	5.36081E-09
1047.78418	5.33836E-09
1047.90869	5.31604E-09
1048.03308	5.29386E-09
1048.15759	5.27181E-09
1048.28198	5.24990E-09
1048.40649	5.22811E-09
1048.53088	5.20646E-09
1048.65540	5.18494E-09
1048.77979	5.16355E-09
1048.90430	5.14229E-09
1049.02869	5.12116E-09
1049.15320	5.10016E-09
1049.27759	5.07927E-09
1049.40210	5.05853E-09
1049.52649	5.03791E-09
1049.65100	5.01742E-09
1049.77551	4.99704E-09
1049.89990	4.97680E-09
1050.02441	4.95668E-09
1050.14880	4.93669E-09
1050.27332	4.91681E-09
1050.39771	4.89706E-09
1050.52222	4.87743E-09
1050.64661	4.85792E-09
1050.77112	4.83853E-09
1050.89551	4.81925E-09
1051.02002	4.80010E-09
1051.14441	4.78106E-09
1051.26892	4.76214E-09
1051.39331	4.74333E-09
1051.51782	4.72463E-09
1051.64233	4.70606E-09
1051.76672	4.68758E-09
1051.89124	4.66923E-09
1052.01563	4.65098E-09
1052.14014	4.63284E-09
1052.26453	4.61481E-09
1052.38904	4.59690E-09
1052.51343	4.57908E-09
1052.63794	4.56138E-09
1052.76233	4.54378E-09
1052.88684	4.52627E-09
1053.01123	4.50889E-09
1053.13574	4.49159E-09
1053.26013	4.47440E-09
1053.38464	4.45731E-09
1053.50903	4.44031E-09
1053.63355	4.42341E-09
1053.75806	4.40662E-09
1053.88245	4.38992E-09
1054.00696	4.37331E-09
1054.13135	4.35681E-09
1054.25586	4.34039E-09
1054.38025	4.32407E-09
1054.50476	4.30784E-09
1054.62915	4.29170E-09
1054.75366	4.27564E-09
1054.87805	4.25970E-09
1055.00256	4.24382E-09
1055.12695	4.22804E-09
1055.25147	4.21236E-09
1055.37585	4.19675E-09
1055.50037	4.18123E-09
1055.62488	4.16579E-09
1055.74927	4.15044E-09
1055.87378	4.13517E-09
1055.99817	4.12000E-09
1056.12268	4.10489E-09
1056.24707	4.08988E-09
1056.37158	4.07494E-09
1056.49597	4.06009E-09
1056.62048	4.04531E-09
1056.74487	4.03062E-09
1056.86939	4.01600E-09
1056.99377	4.00146E-09
1057.11829	3.98701E-09
1057.24268	3.97263E-09
1057.36719	3.95832E-09
1057.49170	3.94410E-09
1057.61609	3.92995E-09
1057.74060	3.91587E-09
1057.86499	3.90186E-09
1057.98950	3.88794E-09
1058.11389	3.87409E-09
1058.23840	3.86031E-09
1058.36279	3.84661E-09
1058.48731	3.83298E-09
1058.61169	3.81943E-09
1058.73621	3.80594E-09
1058.86060	3.79253E-09
1058.98511	3.77919E-09
1059.10950	3.76593E-09
1059.23401	3.75272E-09
1059.35852	3.73959E-09
1059.48291	3.72655E-09
1059.60742	3.71355E-09
1059.73181	3.70063E-09
1059.85632	3.68779E-09
1059.98071	3.67502E-09
1060.10523	3.66231E-09
1060.22961	3.64967E-09
1060.35413	3.63710E-09
1060.47852	3.62460E-09
1060.60303	3.61216E-09
1060.72742	3.59980E-09
1060.85193	3.58749E-09
1060.97632	3.57526E-09
1061.10083	3.56309E-09
1061.22534	3.55100E-09
1061.34973	3.53897E-09
1061.47424	3.52700E-09
1061.59863	3.51510E-09
1061.72315	3.50326E-09
1061.84753	3.49149E-09
1061.97205	3.47979E-09
1062.09644	3.46815E-09
1062.22095	3.45658E-09
1062.34534	3.44506E-09
1062.46985	3.43362E-09
1062.59424	3.42223E-09
1062.71875	3.41091E-09
1062.84314	3.39965E-09
1062.96765	3.38845E-09
1063.09216	3.37731E-09
1063.21655	3.36623E-09
1063.34106	3.35522E-09
1063.46545	3.34427E-09
1063.58997	3.33338E-09
1063.71436	3.32255E-09
1063.83887	3.31178E-09
1063.96326	3.30107E-09
1064.08777	3.29041E-09
1064.21216	3.27981E-09
1064.33667	3.26928E-09
1064.46106	3.25880E-09
1064.58557	3.24838E-09
1064.70996	3.23802E-09
1064.83447	3.22771E-09
1064.95898	3.21746E-09
1065.08337	3.20727E-09
1065.20789	3.19713E-09
1065.33228	3.18705E-09
1065.45679	3.17702E-09
1065.58118	3.16705E-09
1065.70569	3.15713E-09
1065.83008	3.14726E-09
1065.95459	3.13745E-09
1066.07898	3.12769E-09
1066.20349	3.11798E-09
1066.32788	3.10833E-09
1066.45239	3.09873E-09
1066.57678	3.08918E-09
1066.70129	3.07968E-09
1066.82581	3.07023E-09
1066.95020	3.06084E-09
1067.07471	3.05149E-09
1067.19910	3.04219E-09
1067.32361	3.03294E-09
1067.44800	3.02374E-09
1067.57251	3.01458E-09
1067.69690	3.00547E-09
1067.82141	2.99641E-09
1067.94580	2.98740E-09
1068.07031	2.97843E-09
1068.19470	2.96951E-09
1068.31921	2.96064E-09
1068.44360	2.95181E-09
1068.56812	2.94303E-09
1068.69263	2.93429E-09
1068.81702	2.92559E-09
1068.94153	2.91694E-09
1069.06592	2.90833E-09
1069.19043	2.89977E-09
1069.31482	2.89125E-09
1069.43933	2.88277E-09
1069.56372	2.87433E-09
1069.68823	2.86594E-09
1069.81262	2.85759E-09
1069.93713	2.84928E-09
1070.06152	2.84101E-09
1070.18604	2.83279E-09
1070.31043	2.82460E-09
1070.43494	2.81645E-09
1070.55945	2.80835E-09
1070.68384	2.80029E-09
1070.80835	2.79227E-09
1070.93274	2.78429E-09
1071.05725	2.77635E-09
1071.18164	2.76844E-09
1071.30615	2.76058E-09
1071.43054	2.75276E-09
1071.55505	2.74497E-09
1071.67944	2.73723E-09
1071.80396	2.72952E-09
1071.92835	2.72185E-09
1072.05286	2.71423E-09
1072.17725	2.70664E-09
1072.30176	2.69909E-09
1072.42627	2.69158E-09
1072.55066	2.68411E-09
1072.67517	2.67667E-09
1072.79956	2.66928E-09
1072.92407	2.66192E-09
1073.04846	2.65461E-09
1073.17297	2.64732E-09
1073.29736	2.64009E-09
1073.42188	2.63288E-09
1073.54627	2.62572E-09
1073.67078	2.61860E-09
1073.79517	2.61151E-09
1073.91968	2.60446E-09
1074.04407	2.59745E-09
1074.16858	2.59048E-09
1074.29309	2.58355E-09
1074.41748	2.57666E-09
1074.54199	2.56980E-09
1074.66638	2.56299E-09
1074.79089	2.55621E-09
1074.91528	2.54947E-09
1075.03980	2.54277E-09
1075.16419	2.53610E-09
1075.28870	2.52948E-09
1075.41309	2.52289E-09
1075.53760	2.51635E-09
1075.66199	2.50984E-09
1075.78650	2.50336E-09
1075.91089	2.49693E-09
1076.03540	2.49054E-09
1076.15979	2.48419E-09
1076.28430	2.47787E-09
1076.40881	2.47159E-09
1076.53320	2.46535E-09
1076.65772	2.45915E-09
1076.78210	2.45298E-09
1076.90662	2.44686E-09
1077.03101	2.44078E-09
1077.15552	2.43473E-09
1077.27991	2.42872E-09
1077.40442	2.42274E-09
1077.52881	2.41681E-09
1077.65332	2.41091E-09
1077.77771	2.40505E-09
1077.90222	2.39923E-09
1078.02661	2.39345E-09
1078.15112	2.38770E-09
1078.27564	2.38200E-09
1078.40002	2.37632E-09
1078.52454	2.37069E-09
1078.64893	2.36509E-09
1078.77344	2.35953E-09
1078.89783	2.35401E-09
1079.02234	2.34852E-09
1079.14673	2.34307E-09
1079.27124	2.33766E-09
1079.39563	2.33228E-09
1079.52014	2.32694E-09
1079.64453	2.32163E-09
1079.76904	2.31636E-09
1079.89343	2.31112E-09
1080.01794	2.30592E-09
1080.14246	2.30076E-09
1080.26685	2.29562E-09
1080.39136	2.29053E-09
1080.51575	2.28546E-09
1080.64026	2.28043E-09
1080.76465	2.27544E-09
1080.88916	2.27048E-09
1081.01355	2.26555E-09
1081.13806	2.26065E-09
1081.26245	2.25579E-09
1081.38696	2.25096E-09
1081.51135	2.24616E-09
1081.63586	2.24139E-09
1081.76025	2.23665E-09
1081.88477	2.23194E-09
1082.00928	2.22727E-09
1082.13367	2.22263E-09
1082.25818	2.21801E-09
1082.38257	2.21343E-09
1082.50708	2.20887E-09
1082.63147	2.20434E-09
1082.75598	2.19985E-09
1082.88037	2.19538E-09
1083.00488	2.19094E-09
1083.12927	2.18653E-09
1083.25378	2.18214E-09
1083.37817	2.17779E-09
1083.50269	2.17346E-09
1083.62708	2.16915E-09
1083.75159	2.16487E-09
1083.87610	2.16062E-09
1084.00049	2.15640E-09
1084.12500	2.15220E-09
1084.24939	2.14803E-09
1084.37390	2.14388E-09
1084.49829	2.13976E-09
1084.62280	2.13566E-09
1084.74719	2.13158E-09
1084.87170	2.12753E-09
1084.99609	2.12350E-09
1085.12061	2.11950E-09
1085.24500	2.11552E-09
1085.36951	2.11156E-09
1085.49390	2.10762E-09
1085.61841	2.10371E-09
1085.74292	2.09981E-09
1085.86731	2.09594E-09
1085.99182	2.09210E-09
1086.11621	2.08827E-09
1086.24072	2.08446E-09
1086.36511	2.08068E-09
1086.48962	2.07692E-09
1086.61401	2.07318E-09
1086.73853	2.06946E-09
1086.86292	2.06576E-09
1086.98743	2.06208E-09
1087.11182	2.05842E-09
1087.23633	2.05478E-09
1087.36072	2.05116E-09
1087.48523	2.04756E-09
1087.60974	2.04398E-09
1087.73413	2.04042E-09
1087.85864	2.03688E-09
1087.98303	2.03336E-09
1088.10754	2.02985E-09
1088.23193	2.02637E-09
1088.35645	2.02291E-09
1088.48084	2.01946E-09
1088.60535	2.01604E-09
1088.72974	2.01263E-09
1088.85425	2.00925E-09
1088.97864	2.00588E-09
1089.10315	2.00253E-09
1089.22754	1.99920E-09
1089.35205	1.99589E-09
1089.47656	1.99260E-09
1089.60095	1.98933E-09
1089.72546	1.98608E-09
1089.84985	1.98285E-09
1089.97437	1.97963E-09
1090.09876	1.97644E-09
1090.22327	1.97326E-09
1090.34766	1.97010E-09
1090.47217	1.96696E-09
1090.59656	1.96384E-09
1090.72107	1.96074E-09
1090.84546	1.95766E-09
1090.96997	1.95460E-09
1091.09436	1.95156E-09
1091.21887	1.94854E-09
1091.34338	1.94554E-09
1091.46777	1.94255E-09
1091.59229	1.93959E-09
1091.71668	1.93665E-09
1091.84119	1.93372E-09
1091.96558	1.93082E-09
1092.09009	1.92794E-09
1092.21448	1.92507E-09
1092.33899	1.92223E-09
1092.46338	1.91941E-09
1092.58789	1.91660E-09
1092.71228	1.91382E-09
1092.83679	1.91105E-09
1092.96118	1.90831E-09
1093.08569	1.90559E-09
1093.21021	1.90288E-09
1093.33460	1.90020E-09
1093.45911	1.89754E-09
1093.58350	1.89490E-09
1093.70801	1.89228E-09
1093.83240	1.88968E-09
1093.95691	1.88709E-09
1094.08130	1.88453E-09
1094.20581	1.88200E-09
1094.33020	1.87948E-09
1094.45471	1.87698E-09
1094.57910	1.87450E-09
1094.70361	1.87204E-09
1094.82800	1.86960E-09
1094.95252	1.86718E-09
1095.07703	1.86479E-09
1095.20142	1.86241E-09
1095.32593	1.86005E-09
1095.45032	1.85771E-09
1095.57483	1.85539E-09
1095.69922	1.85310E-09
1095.82373	1.85082E-09
1095.94812	1.84856E-09
1096.07263	1.84632E-09
1096.19702	1.84411E-09
1096.32153	1.84191E-09
1096.44592	1.83973E-09
1096.57044	1.83757E-09
1096.69482	1.83543E-09
1096.81934	1.83330E-09
1096.94385	1.83120E-09
1097.06824	1.82912E-09
1097.19275	1.82705E-09
1097.31714	1.82500E-09
1097.44165	1.82297E-09
1097.56604	1.82096E-09
1097.69055	1.81897E-09
1097.81494	1.81699E-09
1097.93945	1.81503E-09
1098.06384	1.81309E-09
1098.18835	1.81117E-09
1098.31274	1.80926E-09
1098.43726	1.80737E-09
1098.56165	1.80550E-09
1098.68616	1.80365E-09
1098.81055	1.80181E-09
1098.93506	1.79998E-09
1099.05957	1.79817E-09
1099.18396	1.79638E-09
1099.30847	1.79461E-09
1099.43286	1.79284E-09
1099.55737	1.79110E-09
1099.68176	1.78937E-09
1099.80627	1.78765E-09
1099.93066	1.78594E-09
1100.05518	1.78426E-09
1100.17957	1.78258E-09
1100.30408	1.78092E-09
1100.42847	1.77927E-09
1100.55298	1.77764E-09
1100.67737	1.77601E-09
1100.80188	1.77441E-09
1100.92639	1.77281E-09
1101.05078	1.77123E-09
1101.17529	1.76966E-09
1101.29968	1.76810E-09
1101.42419	1.76655E-09
1101.54858	1.76501E-09
1101.67310	1.76349E-09
1101.79749	1.76198E-09
1101.92200	1.76048E-09
1102.04639	1.75898E-09
1102.17090	1.75750E-09
1102.29529	1.75603E-09
1102.41980	1.75457E-09
1102.54419	1.75312E-09
1102.66870	1.75169E-09
1102.79321	1.75025E-09
1102.91760	1.74883E-09
1103.04211	1.74742E-09
1103.16650	1.74602E-09
1103.29102	1.74463E-09
1103.41541	1.74325E-09
1103.53992	1.74187E-09
1103.66431	1.74051E-09
1103.78882	1.73915E-09
1103.91321	1.73780E-09
1104.03772	1.73646E-09
1104.16211	1.73513E-09
1104.28662	1.73381E-09
1104.41101	1.73249E-09
1104.53552	1.73119E-09
1104.66003	1.72989E-09
1104.78442	1.72860E-09
1104.90894	1.72732E-09
1105.03333	1.72604E-09
1105.15784	1.72477E-09
1105.28223	1.72351E-09
1105.40674	1.72226E-09
1105.53113	1.72102E-09
1105.65564	1.71978E-09
1105.78003	1.71855E-09
1105.90454	1.71733E-09
1106.02893	1.71612E-09
1106.15344	1.71491E-09
1106.27783	1.71371E-09
1106.40234	1.71252E-09
1106.52686	1.71133E-09
1106.65125	1.71016E-09
1106.77576	1.70899E-09
1106.90015	1.70782E-09
1107.02466	1.70667E-09
1107.14905	1.70552E-09
1107.27356	1.70438E-09
1107.39795	1.70325E-09
1107.52246	1.70212E-09
1107.64685	1.70100E-09
1107.77136	1.69990E-09
1107.89575	1.69879E-09
1108.02026	1.69770E-09
1108.14465	1.69661E-09
1108.26917	1.69553E-09
1108.39368	1.69446E-09
1108.51807	1.69339E-09
1108.64258	1.69233E-09
1108.76697	1.69128E-09
1108.89148	1.69024E-09
1109.01587	1.68921E-09
1109.14038	1.68818E-09
1109.26477	1.68716E-09
1109.38928	1.68614E-09
1109.51367	1.68514E-09
1109.63818	1.68414E-09
1109.76257	1.68315E-09
1109.88709	1.68217E-09
1110.01148	1.68120E-09
1110.13599	1.68023E-09
1110.26050	1.67927E-09
1110.38489	1.67832E-09
1110.50940	1.67738E-09
1110.63379	1.67644E-09
1110.75830	1.67552E-09
1110.88269	1.67459E-09
1111.00720	1.67368E-09
1111.13159	1.67277E-09
1111.25610	1.67188E-09
1111.38049	1.67099E-09
1111.50501	1.67010E-09
1111.62940	1.66923E-09
1111.75391	1.66836E-09
1111.87830	1.66749E-09
1112.00281	1.66664E-09
1112.12732	1.66579E-09
1112.25171	1.66495E-09
1112.37622	1.66412E-09
1112.50061	1.66329E-09
1112.62512	1.66247E-09
1112.74951	1.66166E-09
1112.87402	1.66085E-09
1112.99841	1.66005E-09
1113.12293	1.65926E-09
1113.24731	1.65847E-09
1113.37183	1.65769E-09
1113.49622	1.65692E-09
1113.62073	1.65615E-09
1113.74512	1.65539E-09
1113.86963	1.65463E-09
1113.99414	1.65388E-09
1114.11853	1.65313E-09
1114.24304	1.65239E-09
1114.36743	1.65166E-09
1114.49194	1.65093E-09
1114.61633	1.65020E-09
1114.74085	1.64948E-09
1114.86523	1.64877E-09
1114.98975	1.64806E-09
1115.11414	1.64735E-09
1115.23865	1.64665E-09
1115.36304	1.64595E-09
1115.48755	1.64526E-09
1115.61194	1.64457E-09
1115.73645	1.64388E-09
1115.86096	1.64320E-09
1115.98535	1.64252E-09
1116.10986	1.64185E-09
1116.23425	1.64118E-09
1116.35877	1.64051E-09
1116.48315	1.63984E-09
1116.60767	1.63918E-09
1116.73206	1.63852E-09
1116.85657	1.63787E-09
1116.98096	1.63721E-09
1117.10547	1.63656E-09
1117.22986	1.63591E-09
1117.35437	1.63526E-09
1117.47876	1.63461E-09
1117.60327	1.63397E-09
1117.72778	1.63333E-09
1117.85217	1.63269E-09
1117.97669	1.63205E-09
1118.10107	1.63141E-09
1118.22559	1.63078E-09
1118.34998	1.63014E-09
1118.47449	1.62951E-09
1118.59888	1.62888E-09
1118.72339	1.62825E-09
1118.84778	1.62762E-09
1118.97229	1.62699E-09
1119.09668	1.62636E-09
1119.22119	1.62574E-09
1119.34558	1.62511E-09
1119.47009	1.62449E-09
1119.59448	1.62386E-09
1119.71899	1.62324E-09
1119.84351	1.62261E-09
1119.96790	1.62199E-09
1120.09241	1.62137E-09
1120.21680	1.62075E-09
1120.34131	1.62013E-09
1120.46570	1.61951E-09
1120.59021	1.61889E-09
1120.71460	1.61828E-09
1120.83911	1.61766E-09
1120.96350	1.61704E-09
1121.08801	1.61643E-09
1121.21240	1.61581E-09
1121.33691	1.61520E-09
1121.46130	1.61458E-09
1121.58582	1.61397E-09
1121.71033	1.61336E-09
1121.83472	1.61275E-09
1121.95923	1.61214E-09
1122.08362	1.61153E-09
1122.20813	1.61092E-09
1122.33252	1.61032E-09
1122.45703	1.60971E-09
1122.58142	1.60911E-09
1122.70593	1.60851E-09
1122.83032	1.60791E-09
1122.95483	1.60731E-09
1123.07922	1.60671E-09
1123.20374	1.60611E-09
1123.32813	1.60552E-09
1123.45264	1.60493E-09
1123.57715	1.60434E-09
1123.70154	1.60375E-09
1123.82605	1.60316E-09
1123.95044	1.60258E-09
1124.07495	1.60200E-09
1124.19934	1.60142E-09
1124.32385	1.60084E-09
1124.44824	1.60027E-09
1124.57275	1.59970E-09
1124.69714	1.59912E-09
1124.82166	1.59856E-09
1124.94605	1.59799E-09
1125.07056	1.59743E-09
1125.19495	1.59687E-09
1125.31946	1.59632E-09
1125.44397	1.59577E-09
1125.56836	1.59522E-09
1125.69287	1.59467E-09
1125.81726	1.59413E-09
1125.94177	1.59359E-09
1126.06616	1.59305E-09
1126.19067	1.59252E-09
1126.31506	1.59199E-09
1126.43958	1.59146E-09
1126.56397	1.59094E-09
1126.68848	1.59042E-09
1126.81287	1.58990E-09
1126.93738	1.58939E-09
1127.06177	1.58888E-09
1127.18628	1.58838E-09
1127.31079	1.58787E-09
1127.43518	1.58738E-09
