Wavenumber	NESR 6.60 cm-1
1019.53296	8.83381E-09
1019.65741	8.82819E-09
1019.78186	8.82054E-09
1019.90631	8.81088E-09
1020.03076	8.79924E-09
1020.15521	8.78567E-09
1020.27966	8.77019E-09
1020.40411	8.75288E-09
1020.52863	8.73377E-09
1020.65308	8.71292E-09
1020.77753	8.69043E-09
1020.90198	8.66636E-09
1021.02643	8.64078E-09
1021.15088	8.61377E-09
1021.27533	8.58543E-09
1021.39978	8.55583E-09
1021.52423	8.52504E-09
1021.64868	8.49317E-09
1021.77313	8.46026E-09
1021.89758	8.42646E-09
1022.02203	8.39176E-09
1022.14648	8.35631E-09
1022.27094	8.32015E-09
1022.39545	8.28334E-09
1022.51990	8.24596E-09
1022.64435	8.20808E-09
1022.76880	8.16974E-09
1022.89325	8.13103E-09
1023.01770	8.09195E-09
1023.14215	8.05259E-09
1023.26660	8.01298E-09
1023.39105	7.97314E-09
1023.51550	7.93315E-09
1023.63995	7.89302E-09
1023.76440	7.85280E-09
1023.88886	7.81251E-09
1024.01331	7.77219E-09
1024.13782	7.73184E-09
1024.26221	7.69153E-09
1024.38672	7.65123E-09
1024.51111	7.61100E-09
1024.63562	7.57083E-09
1024.76001	7.53075E-09
1024.88452	7.49076E-09
1025.00891	7.45090E-09
1025.13342	7.41117E-09
1025.25794	7.37156E-09
1025.38232	7.33210E-09
1025.50684	7.29281E-09
1025.63123	7.25368E-09
1025.75574	7.21472E-09
1025.88013	7.17595E-09
1026.00464	7.13739E-09
1026.12903	7.09898E-09
1026.25354	7.06079E-09
1026.37793	7.02280E-09
1026.50244	6.98502E-09
1026.62683	6.94744E-09
1026.75134	6.91008E-09
1026.87573	6.87293E-09
1027.00024	6.83600E-09
1027.12476	6.79930E-09
1027.24915	6.76281E-09
1027.37366	6.72656E-09
1027.49805	6.69054E-09
1027.62256	6.65475E-09
1027.74695	6.61919E-09
1027.87146	6.58387E-09
1027.99585	6.54877E-09
1028.12036	6.51391E-09
1028.24475	6.47929E-09
1028.36926	6.44490E-09
1028.49365	6.41075E-09
1028.61816	6.37684E-09
1028.74255	6.34315E-09
1028.86707	6.30971E-09
1028.99158	6.27650E-09
1029.11597	6.24353E-09
1029.24048	6.21081E-09
1029.36487	6.17832E-09
1029.48938	6.14607E-09
1029.61377	6.11404E-09
1029.73828	6.08226E-09
1029.86267	6.05071E-09
1029.98718	6.01940E-09
1030.11157	5.98832E-09
1030.23608	5.95748E-09
1030.36047	5.92686E-09
1030.48499	5.89647E-09
1030.60938	5.86632E-09
1030.73389	5.83640E-09
1030.85828	5.80670E-09
1030.98279	5.77723E-09
1031.10730	5.74797E-09
1031.23169	5.71895E-09
1031.35620	5.69015E-09
1031.48059	5.66158E-09
1031.60510	5.63322E-09
1031.72949	5.60508E-09
1031.85400	5.57715E-09
1031.97839	5.54944E-09
1032.10291	5.52193E-09
1032.22730	5.49464E-09
1032.35181	5.46756E-09
1032.47620	5.44069E-09
1032.60071	5.41402E-09
1032.72510	5.38756E-09
1032.84961	5.36130E-09
1032.97412	5.33524E-09
1033.09851	5.30937E-09
1033.22302	5.28369E-09
1033.34741	5.25822E-09
1033.47192	5.23293E-09
1033.59631	5.20783E-09
1033.72083	5.18292E-09
1033.84522	5.15819E-09
1033.96973	5.13364E-09
1034.09412	5.10928E-09
1034.21863	5.08509E-09
1034.34302	5.06107E-09
1034.46753	5.03724E-09
1034.59192	5.01356E-09
1034.71643	4.99006E-09
1034.84094	4.96673E-09
1034.96533	4.94355E-09
1035.08984	4.92055E-09
1035.21423	4.89769E-09
1035.33875	4.87500E-09
1035.46314	4.85246E-09
1035.58765	4.83007E-09
1035.71204	4.80784E-09
1035.83655	4.78575E-09
1035.96094	4.76380E-09
1036.08545	4.74200E-09
1036.20984	4.72034E-09
1036.33435	4.69882E-09
1036.45874	4.67744E-09
1036.58325	4.65619E-09
1036.70776	4.63507E-09
1036.83215	4.61409E-09
1036.95667	4.59323E-09
1037.08106	4.57250E-09
1037.20557	4.55189E-09
1037.32996	4.53141E-09
1037.45447	4.51105E-09
1037.57886	4.49080E-09
1037.70337	4.47067E-09
1037.82776	4.45066E-09
1037.95227	4.43076E-09
1038.07666	4.41098E-09
1038.20117	4.39130E-09
1038.32556	4.37173E-09
1038.45007	4.35227E-09
1038.57459	4.33291E-09
1038.69898	4.31365E-09
1038.82349	4.29450E-09
1038.94788	4.27545E-09
1039.07239	4.25651E-09
1039.19678	4.23765E-09
1039.32129	4.21889E-09
1039.44568	4.20023E-09
1039.57019	4.18167E-09
1039.69458	4.16320E-09
1039.81909	4.14482E-09
1039.94348	4.12653E-09
1040.06799	4.10833E-09
1040.19238	4.09022E-09
1040.31690	4.07220E-09
1040.44141	4.05427E-09
1040.56580	4.03643E-09
1040.69031	4.01867E-09
1040.81470	4.00100E-09
1040.93921	3.98341E-09
1041.06360	3.96591E-09
1041.18811	3.94849E-09
1041.31250	3.93115E-09
1041.43701	3.91390E-09
1041.56140	3.89672E-09
1041.68591	3.87963E-09
1041.81030	3.86263E-09
1041.93481	3.84570E-09
1042.05920	3.82886E-09
1042.18372	3.81209E-09
1042.30823	3.79540E-09
1042.43262	3.77880E-09
1042.55713	3.76227E-09
1042.68152	3.74582E-09
1042.80603	3.72945E-09
1042.93042	3.71317E-09
1043.05493	3.69696E-09
1043.17932	3.68083E-09
1043.30383	3.66478E-09
1043.42822	3.64880E-09
1043.55273	3.63291E-09
1043.67712	3.61710E-09
1043.80164	3.60136E-09
1043.92603	3.58570E-09
1044.05054	3.57013E-09
1044.17505	3.55462E-09
1044.29944	3.53920E-09
1044.42395	3.52386E-09
1044.54834	3.50860E-09
1044.67285	3.49341E-09
1044.79724	3.47831E-09
1044.92175	3.46328E-09
1045.04614	3.44834E-09
1045.17065	3.43347E-09
1045.29504	3.41868E-09
1045.41956	3.40398E-09
1045.54395	3.38935E-09
1045.66846	3.37480E-09
1045.79285	3.36033E-09
1045.91736	3.34594E-09
1046.04187	3.33163E-09
1046.16626	3.31740E-09
1046.29077	3.30325E-09
1046.41516	3.28918E-09
1046.53967	3.27518E-09
1046.66406	3.26127E-09
1046.78857	3.24744E-09
1046.91296	3.23369E-09
1047.03748	3.22001E-09
1047.16187	3.20642E-09
1047.28638	3.19290E-09
1047.41077	3.17947E-09
1047.53528	3.16611E-09
1047.65967	3.15283E-09
1047.78418	3.13962E-09
1047.90869	3.12650E-09
1048.03308	3.11345E-09
1048.15759	3.10049E-09
1048.28198	3.08760E-09
1048.40649	3.07478E-09
1048.53088	3.06205E-09
1048.65540	3.04939E-09
1048.77979	3.03681E-09
1048.90430	3.02431E-09
1049.02869	3.01188E-09
1049.15320	2.99953E-09
1049.27759	2.98725E-09
1049.40210	2.97505E-09
1049.52649	2.96292E-09
1049.65100	2.95087E-09
1049.77551	2.93889E-09
1049.89990	2.92698E-09
1050.02441	2.91515E-09
1050.14880	2.90339E-09
1050.27332	2.89170E-09
1050.39771	2.88008E-09
1050.52222	2.86854E-09
1050.64661	2.85706E-09
1050.77112	2.84566E-09
1050.89551	2.83432E-09
1051.02002	2.82306E-09
1051.14441	2.81186E-09
1051.26892	2.80073E-09
1051.39331	2.78967E-09
1051.51782	2.77868E-09
1051.64233	2.76775E-09
1051.76672	2.75689E-09
1051.89124	2.74609E-09
1052.01563	2.73536E-09
1052.14014	2.72469E-09
1052.26453	2.71409E-09
1052.38904	2.70355E-09
1052.51343	2.69308E-09
1052.63794	2.68266E-09
1052.76233	2.67231E-09
1052.88684	2.66201E-09
1053.01123	2.65179E-09
1053.13574	2.64162E-09
1053.26013	2.63151E-09
1053.38464	2.62145E-09
1053.50903	2.61146E-09
1053.63355	2.60152E-09
1053.75806	2.59164E-09
1053.88245	2.58182E-09
1054.00696	2.57206E-09
1054.13135	2.56235E-09
1054.25586	2.55269E-09
1054.38025	2.54309E-09
1054.50476	2.53355E-09
1054.62915	2.52406E-09
1054.75366	2.51461E-09
1054.87805	2.50524E-09
1055.00256	2.49590E-09
1055.12695	2.48662E-09
1055.25147	2.47739E-09
1055.37585	2.46821E-09
1055.50037	2.45909E-09
1055.62488	2.45001E-09
1055.74927	2.44098E-09
1055.87378	2.43200E-09
1055.99817	2.42308E-09
1056.12268	2.41419E-09
1056.24707	2.40536E-09
1056.37158	2.39658E-09
1056.49597	2.38784E-09
1056.62048	2.37915E-09
1056.74487	2.37051E-09
1056.86939	2.36191E-09
1056.99377	2.35336E-09
1057.11829	2.34486E-09
1057.24268	2.33640E-09
1057.36719	2.32799E-09
1057.49170	2.31962E-09
1057.61609	2.31130E-09
1057.74060	2.30302E-09
1057.86499	2.29478E-09
1057.98950	2.28660E-09
1058.11389	2.27845E-09
1058.23840	2.27035E-09
1058.36279	2.26229E-09
1058.48731	2.25427E-09
1058.61169	2.24630E-09
1058.73621	2.23837E-09
1058.86060	2.23048E-09
1058.98511	2.22264E-09
1059.10950	2.21484E-09
1059.23401	2.20707E-09
1059.35852	2.19935E-09
1059.48291	2.19168E-09
1059.60742	2.18404E-09
1059.73181	2.17644E-09
1059.85632	2.16888E-09
1059.98071	2.16137E-09
1060.10523	2.15390E-09
1060.22961	2.14647E-09
1060.35413	2.13907E-09
1060.47852	2.13172E-09
1060.60303	2.12440E-09
1060.72742	2.11713E-09
1060.85193	2.10990E-09
1060.97632	2.10270E-09
1061.10083	2.09555E-09
1061.22534	2.08843E-09
1061.34973	2.08136E-09
1061.47424	2.07432E-09
1061.59863	2.06732E-09
1061.72315	2.06036E-09
1061.84753	2.05344E-09
1061.97205	2.04655E-09
1062.09644	2.03971E-09
1062.22095	2.03290E-09
1062.34534	2.02613E-09
1062.46985	2.01940E-09
1062.59424	2.01270E-09
1062.71875	2.00604E-09
1062.84314	1.99942E-09
1062.96765	1.99283E-09
1063.09216	1.98628E-09
1063.21655	1.97977E-09
1063.34106	1.97329E-09
1063.46545	1.96685E-09
1063.58997	1.96045E-09
1063.71436	1.95407E-09
1063.83887	1.94774E-09
1063.96326	1.94144E-09
1064.08777	1.93517E-09
1064.21216	1.92894E-09
1064.33667	1.92274E-09
1064.46106	1.91658E-09
1064.58557	1.91046E-09
1064.70996	1.90436E-09
1064.83447	1.89830E-09
1064.95898	1.89227E-09
1065.08337	1.88628E-09
1065.20789	1.88031E-09
1065.33228	1.87439E-09
1065.45679	1.86849E-09
1065.58118	1.86262E-09
1065.70569	1.85679E-09
1065.83008	1.85099E-09
1065.95459	1.84522E-09
1066.07898	1.83948E-09
1066.20349	1.83377E-09
1066.32788	1.82809E-09
1066.45239	1.82244E-09
1066.57678	1.81683E-09
1066.70129	1.81124E-09
1066.82581	1.80568E-09
1066.95020	1.80016E-09
1067.07471	1.79466E-09
1067.19910	1.78919E-09
1067.32361	1.78375E-09
1067.44800	1.77834E-09
1067.57251	1.77295E-09
1067.69690	1.76759E-09
1067.82141	1.76227E-09
1067.94580	1.75697E-09
1068.07031	1.75169E-09
1068.19470	1.74645E-09
1068.31921	1.74123E-09
1068.44360	1.73603E-09
1068.56812	1.73087E-09
1068.69263	1.72573E-09
1068.81702	1.72062E-09
1068.94153	1.71553E-09
1069.06592	1.71046E-09
1069.19043	1.70543E-09
1069.31482	1.70042E-09
1069.43933	1.69543E-09
1069.56372	1.69047E-09
1069.68823	1.68553E-09
1069.81262	1.68062E-09
1069.93713	1.67573E-09
1070.06152	1.67087E-09
1070.18604	1.66603E-09
1070.31043	1.66122E-09
1070.43494	1.65643E-09
1070.55945	1.65166E-09
1070.68384	1.64692E-09
1070.80835	1.64220E-09
1070.93274	1.63751E-09
1071.05725	1.63284E-09
1071.18164	1.62819E-09
1071.30615	1.62357E-09
1071.43054	1.61897E-09
1071.55505	1.61439E-09
1071.67944	1.60983E-09
1071.80396	1.60530E-09
1071.92835	1.60079E-09
1072.05286	1.59631E-09
1072.17725	1.59184E-09
1072.30176	1.58740E-09
1072.42627	1.58299E-09
1072.55066	1.57859E-09
1072.67517	1.57422E-09
1072.79956	1.56987E-09
1072.92407	1.56554E-09
1073.04846	1.56124E-09
1073.17297	1.55696E-09
1073.29736	1.55270E-09
1073.42188	1.54847E-09
1073.54627	1.54425E-09
1073.67078	1.54006E-09
1073.79517	1.53590E-09
1073.91968	1.53175E-09
1074.04407	1.52763E-09
1074.16858	1.52353E-09
1074.29309	1.51945E-09
1074.41748	1.51540E-09
1074.54199	1.51137E-09
1074.66638	1.50736E-09
1074.79089	1.50337E-09
1074.91528	1.49941E-09
1075.03980	1.49546E-09
1075.16419	1.49155E-09
1075.28870	1.48765E-09
1075.41309	1.48378E-09
1075.53760	1.47993E-09
1075.66199	1.47610E-09
1075.78650	1.47229E-09
1075.91089	1.46851E-09
1076.03540	1.46475E-09
1076.15979	1.46101E-09
1076.28430	1.45730E-09
1076.40881	1.45361E-09
1076.53320	1.44994E-09
1076.65772	1.44629E-09
1076.78210	1.44266E-09
1076.90662	1.43906E-09
1077.03101	1.43548E-09
1077.15552	1.43192E-09
1077.27991	1.42839E-09
1077.40442	1.42488E-09
1077.52881	1.42139E-09
1077.65332	1.41792E-09
1077.77771	1.41447E-09
1077.90222	1.41105E-09
1078.02661	1.40765E-09
1078.15112	1.40427E-09
1078.27564	1.40091E-09
1078.40002	1.39758E-09
1078.52454	1.39426E-09
1078.64893	1.39097E-09
1078.77344	1.38770E-09
1078.89783	1.38445E-09
1079.02234	1.38123E-09
1079.14673	1.37802E-09
1079.27124	1.37484E-09
1079.39563	1.37167E-09
1079.52014	1.36853E-09
1079.64453	1.36541E-09
1079.76904	1.36231E-09
1079.89343	1.35923E-09
1080.01794	1.35617E-09
1080.14246	1.35313E-09
1080.26685	1.35011E-09
1080.39136	1.34712E-09
1080.51575	1.34414E-09
1080.64026	1.34118E-09
1080.76465	1.33824E-09
1080.88916	1.33532E-09
1081.01355	1.33243E-09
1081.13806	1.32955E-09
1081.26245	1.32669E-09
1081.38696	1.32384E-09
1081.51135	1.32102E-09
1081.63586	1.31822E-09
1081.76025	1.31543E-09
1081.88477	1.31266E-09
1082.00928	1.30991E-09
1082.13367	1.30718E-09
1082.25818	1.30447E-09
1082.38257	1.30177E-09
1082.50708	1.29909E-09
1082.63147	1.29643E-09
1082.75598	1.29379E-09
1082.88037	1.29116E-09
1083.00488	1.28855E-09
1083.12927	1.28595E-09
1083.25378	1.28337E-09
1083.37817	1.28081E-09
1083.50269	1.27826E-09
1083.62708	1.27573E-09
1083.75159	1.27322E-09
1083.87610	1.27072E-09
1084.00049	1.26823E-09
1084.12500	1.26577E-09
1084.24939	1.26331E-09
1084.37390	1.26087E-09
1084.49829	1.25844E-09
1084.62280	1.25603E-09
1084.74719	1.25364E-09
1084.87170	1.25125E-09
1084.99609	1.24889E-09
1085.12061	1.24653E-09
1085.24500	1.24419E-09
1085.36951	1.24186E-09
1085.49390	1.23954E-09
1085.61841	1.23724E-09
1085.74292	1.23495E-09
1085.86731	1.23268E-09
1085.99182	1.23041E-09
1086.11621	1.22817E-09
1086.24072	1.22593E-09
1086.36511	1.22370E-09
1086.48962	1.22149E-09
1086.61401	1.21929E-09
1086.73853	1.21710E-09
1086.86292	1.21492E-09
1086.98743	1.21276E-09
1087.11182	1.21061E-09
1087.23633	1.20847E-09
1087.36072	1.20634E-09
1087.48523	1.20422E-09
1087.60974	1.20212E-09
1087.73413	1.20002E-09
1087.85864	1.19794E-09
1087.98303	1.19587E-09
1088.10754	1.19381E-09
1088.23193	1.19176E-09
1088.35645	1.18972E-09
1088.48084	1.18770E-09
1088.60535	1.18568E-09
1088.72974	1.18368E-09
1088.85425	1.18169E-09
1088.97864	1.17971E-09
1089.10315	1.17774E-09
1089.22754	1.17578E-09
1089.35205	1.17384E-09
1089.47656	1.17190E-09
1089.60095	1.16998E-09
1089.72546	1.16806E-09
1089.84985	1.16616E-09
1089.97437	1.16427E-09
1090.09876	1.16239E-09
1090.22327	1.16052E-09
1090.34766	1.15867E-09
1090.47217	1.15682E-09
1090.59656	1.15499E-09
1090.72107	1.15316E-09
1090.84546	1.15135E-09
1090.96997	1.14955E-09
1091.09436	1.14776E-09
1091.21887	1.14599E-09
1091.34338	1.14422E-09
1091.46777	1.14246E-09
1091.59229	1.14072E-09
1091.71668	1.13899E-09
1091.84119	1.13727E-09
1091.96558	1.13556E-09
1092.09009	1.13387E-09
1092.21448	1.13218E-09
1092.33899	1.13051E-09
1092.46338	1.12885E-09
1092.58789	1.12720E-09
1092.71228	1.12557E-09
1092.83679	1.12394E-09
1092.96118	1.12233E-09
1093.08569	1.12072E-09
1093.21021	1.11913E-09
1093.33460	1.11756E-09
1093.45911	1.11599E-09
1093.58350	1.11444E-09
1093.70801	1.11290E-09
1093.83240	1.11137E-09
1093.95691	1.10985E-09
1094.08130	1.10834E-09
1094.20581	1.10685E-09
1094.33020	1.10537E-09
1094.45471	1.10390E-09
1094.57910	1.10244E-09
1094.70361	1.10099E-09
1094.82800	1.09956E-09
1094.95252	1.09814E-09
1095.07703	1.09673E-09
1095.20142	1.09533E-09
1095.32593	1.09394E-09
1095.45032	1.09257E-09
1095.57483	1.09120E-09
1095.69922	1.08985E-09
1095.82373	1.08851E-09
1095.94812	1.08719E-09
1096.07263	1.08587E-09
1096.19702	1.08457E-09
1096.32153	1.08327E-09
1096.44592	1.08199E-09
1096.57044	1.08072E-09
1096.69482	1.07946E-09
1096.81934	1.07821E-09
1096.94385	1.07697E-09
1097.06824	1.07575E-09
1097.19275	1.07453E-09
1097.31714	1.07333E-09
1097.44165	1.07214E-09
1097.56604	1.07095E-09
1097.69055	1.06978E-09
1097.81494	1.06862E-09
1097.93945	1.06747E-09
1098.06384	1.06633E-09
1098.18835	1.06519E-09
1098.31274	1.06407E-09
1098.43726	1.06296E-09
1098.56165	1.06186E-09
1098.68616	1.06077E-09
1098.81055	1.05969E-09
1098.93506	1.05862E-09
1099.05957	1.05755E-09
1099.18396	1.05650E-09
1099.30847	1.05545E-09
1099.43286	1.05442E-09
1099.55737	1.05339E-09
1099.68176	1.05237E-09
1099.80627	1.05136E-09
1099.93066	1.05036E-09
1100.05518	1.04937E-09
1100.17957	1.04838E-09
1100.30408	1.04740E-09
1100.42847	1.04643E-09
1100.55298	1.04547E-09
1100.67737	1.04452E-09
1100.80188	1.04357E-09
1100.92639	1.04263E-09
1101.05078	1.04170E-09
1101.17529	1.04078E-09
1101.29968	1.03986E-09
1101.42419	1.03895E-09
1101.54858	1.03805E-09
1101.67310	1.03715E-09
1101.79749	1.03626E-09
1101.92200	1.03538E-09
1102.04639	1.03450E-09
1102.17090	1.03363E-09
1102.29529	1.03277E-09
1102.41980	1.03191E-09
1102.54419	1.03106E-09
1102.66870	1.03021E-09
1102.79321	1.02937E-09
1102.91760	1.02853E-09
1103.04211	1.02770E-09
1103.16650	1.02688E-09
1103.29102	1.02606E-09
1103.41541	1.02525E-09
1103.53992	1.02444E-09
1103.66431	1.02364E-09
1103.78882	1.02284E-09
1103.91321	1.02205E-09
1104.03772	1.02126E-09
1104.16211	1.02047E-09
1104.28662	1.01970E-09
1104.41101	1.01892E-09
1104.53552	1.01816E-09
1104.66003	1.01739E-09
1104.78442	1.01663E-09
1104.90894	1.01588E-09
1105.03333	1.01513E-09
1105.15784	1.01438E-09
1105.28223	1.01364E-09
1105.40674	1.01291E-09
1105.53113	1.01217E-09
1105.65564	1.01145E-09
1105.78003	1.01072E-09
1105.90454	1.01001E-09
1106.02893	1.00929E-09
1106.15344	1.00858E-09
1106.27783	1.00788E-09
1106.40234	1.00718E-09
1106.52686	1.00648E-09
1106.65125	1.00579E-09
1106.77576	1.00510E-09
1106.90015	1.00441E-09
1107.02466	1.00374E-09
1107.14905	1.00306E-09
1107.27356	1.00239E-09
1107.39795	1.00172E-09
1107.52246	1.00106E-09
1107.64685	1.00040E-09
1107.77136	9.99752E-10
1107.89575	9.99103E-10
1108.02026	9.98459E-10
1108.14465	9.97819E-10
1108.26917	9.97183E-10
1108.39368	9.96553E-10
1108.51807	9.95926E-10
1108.64258	9.95305E-10
1108.76697	9.94687E-10
1108.89148	9.94073E-10
1109.01587	9.93465E-10
1109.14038	9.92860E-10
1109.26477	9.92260E-10
1109.38928	9.91664E-10
1109.51367	9.91073E-10
1109.63818	9.90487E-10
1109.76257	9.89905E-10
1109.88709	9.89328E-10
1110.01148	9.88755E-10
1110.13599	9.88187E-10
1110.26050	9.87623E-10
1110.38489	9.87063E-10
1110.50940	9.86508E-10
1110.63379	9.85958E-10
1110.75830	9.85413E-10
1110.88269	9.84871E-10
1111.00720	9.84334E-10
1111.13159	9.83801E-10
1111.25610	9.83273E-10
1111.38049	9.82749E-10
1111.50501	9.82230E-10
1111.62940	9.81714E-10
1111.75391	9.81204E-10
1111.87830	9.80696E-10
1112.00281	9.80195E-10
1112.12732	9.79696E-10
1112.25171	9.79202E-10
1112.37622	9.78712E-10
1112.50061	9.78225E-10
1112.62512	9.77744E-10
1112.74951	9.77265E-10
1112.87402	9.76791E-10
1112.99841	9.76320E-10
1113.12293	9.75853E-10
1113.24731	9.75391E-10
1113.37183	9.74932E-10
1113.49622	9.74476E-10
1113.62073	9.74024E-10
1113.74512	9.73575E-10
1113.86963	9.73130E-10
1113.99414	9.72688E-10
1114.11853	9.72250E-10
1114.24304	9.71814E-10
1114.36743	9.71382E-10
1114.49194	9.70952E-10
1114.61633	9.70526E-10
1114.74085	9.70102E-10
1114.86523	9.69682E-10
1114.98975	9.69264E-10
1115.11414	9.68849E-10
1115.23865	9.68436E-10
1115.36304	9.68027E-10
1115.48755	9.67619E-10
1115.61194	9.67212E-10
1115.73645	9.66809E-10
1115.86096	9.66408E-10
1115.98535	9.66009E-10
1116.10986	9.65612E-10
1116.23425	9.65217E-10
1116.35877	9.64824E-10
1116.48315	9.64433E-10
1116.60767	9.64044E-10
1116.73206	9.63656E-10
1116.85657	9.63270E-10
1116.98096	9.62885E-10
1117.10547	9.62501E-10
1117.22986	9.62119E-10
1117.35437	9.61737E-10
1117.47876	9.61358E-10
1117.60327	9.60979E-10
1117.72778	9.60601E-10
1117.85217	9.60224E-10
1117.97669	9.59849E-10
1118.10107	9.59474E-10
1118.22559	9.59101E-10
1118.34998	9.58728E-10
1118.47449	9.58357E-10
1118.59888	9.57984E-10
1118.72339	9.57614E-10
1118.84778	9.57244E-10
1118.97229	9.56874E-10
1119.09668	9.56505E-10
1119.22119	9.56137E-10
1119.34558	9.55769E-10
1119.47009	9.55402E-10
1119.59448	9.55034E-10
1119.71899	9.54667E-10
1119.84351	9.54301E-10
1119.96790	9.53935E-10
1120.09241	9.53570E-10
1120.21680	9.53205E-10
1120.34131	9.52840E-10
1120.46570	9.52476E-10
1120.59021	9.52113E-10
1120.71460	9.51750E-10
1120.83911	9.51387E-10
1120.96350	9.51024E-10
1121.08801	9.50661E-10
1121.21240	9.50299E-10
1121.33691	9.49938E-10
1121.46130	9.49577E-10
1121.58582	9.49217E-10
1121.71033	9.48857E-10
1121.83472	9.48498E-10
1121.95923	9.48140E-10
1122.08362	9.47782E-10
1122.20813	9.47425E-10
1122.33252	9.47069E-10
1122.45703	9.46713E-10
1122.58142	9.46358E-10
1122.70593	9.46004E-10
1122.83032	9.45650E-10
1122.95483	9.45298E-10
1123.07922	9.44947E-10
1123.20374	9.44596E-10
1123.32813	9.44247E-10
1123.45264	9.43898E-10
1123.57715	9.43551E-10
1123.70154	9.43206E-10
1123.82605	9.42861E-10
1123.95044	9.42517E-10
1124.07495	9.42175E-10
1124.19934	9.41834E-10
1124.32385	9.41495E-10
1124.44824	9.41158E-10
1124.57275	9.40821E-10
1124.69714	9.40486E-10
1124.82166	9.40153E-10
1124.94605	9.39821E-10
1125.07056	9.39491E-10
1125.19495	9.39163E-10
1125.31946	9.38836E-10
1125.44397	9.38511E-10
1125.56836	9.38188E-10
1125.69287	9.37867E-10
1125.81726	9.37548E-10
1125.94177	9.37230E-10
1126.06616	9.36914E-10
1126.19067	9.36601E-10
1126.31506	9.36289E-10
1126.43958	9.35980E-10
1126.56397	9.35673E-10
1126.68848	9.35367E-10
1126.81287	9.35063E-10
1126.93738	9.34762E-10
1127.06177	9.34462E-10
1127.18628	9.34164E-10
1127.31079	9.33869E-10
1127.43518	9.33576E-10
