Wavenumber	NESR 1.00 cm-1
17.97255	1.26466E-08
18.14537	1.24456E-08
18.31818	1.22505E-08
18.49099	1.20615E-08
18.66381	1.18789E-08
18.83662	1.17026E-08
19.00943	1.15327E-08
19.18225	1.13694E-08
19.35506	1.12124E-08
19.52787	1.10620E-08
19.70068	1.09179E-08
19.87350	1.07801E-08
20.04631	1.06485E-08
20.21912	1.05229E-08
20.39194	1.04034E-08
20.56475	1.02896E-08
20.73756	1.01816E-08
20.91038	1.00791E-08
21.08319	9.98210E-09
21.25600	9.89030E-09
21.42881	9.80357E-09
21.60163	9.72188E-09
21.77444	9.64497E-09
21.94725	9.57276E-09
22.12007	9.50507E-09
22.29288	9.44175E-09
22.46569	9.38263E-09
22.63851	9.32757E-09
22.81132	9.27642E-09
22.98413	9.22911E-09
23.15695	9.18548E-09
23.32976	9.14533E-09
23.50257	9.10854E-09
23.67538	9.07504E-09
23.84820	9.04457E-09
24.02101	9.01710E-09
24.19382	8.99250E-09
24.36664	8.97055E-09
24.53945	8.95123E-09
24.71226	8.93435E-09
24.88508	8.91973E-09
25.05789	8.90734E-09
25.23070	8.89700E-09
25.40351	8.88855E-09
25.57633	8.88193E-09
25.74914	8.87700E-09
25.92195	8.87363E-09
26.09477	8.87170E-09
26.26758	8.87105E-09
26.44039	8.87161E-09
26.61321	8.87322E-09
26.78602	8.87577E-09
26.95883	8.87917E-09
27.13164	8.88325E-09
27.30446	8.88794E-09
27.47727	8.89307E-09
27.65008	8.89861E-09
27.82290	8.90439E-09
27.99571	8.91030E-09
28.16852	8.91627E-09
28.34134	8.92221E-09
28.51415	8.92798E-09
28.68696	8.93347E-09
28.85977	8.93871E-09
29.03259	8.94349E-09
29.20540	8.94780E-09
29.37821	8.95156E-09
29.55103	8.95469E-09
29.72384	8.95711E-09
29.89665	8.95882E-09
30.06947	8.95970E-09
30.24228	8.95977E-09
30.41509	8.95892E-09
30.58790	8.95720E-09
30.76072	8.95454E-09
30.93353	8.95096E-09
31.10634	8.94636E-09
31.27916	8.94082E-09
31.45197	8.93430E-09
31.62478	8.92680E-09
31.79760	8.91833E-09
31.97041	8.90891E-09
32.14322	8.89861E-09
32.31604	8.88736E-09
32.48885	8.87531E-09
32.66166	8.86236E-09
32.83447	8.84863E-09
33.00729	8.83416E-09
33.18010	8.81897E-09
33.35291	8.80310E-09
33.52573	8.78663E-09
33.69854	8.76957E-09
33.87135	8.75207E-09
34.04417	8.73407E-09
34.21698	8.71564E-09
34.38979	8.69693E-09
34.56260	8.67791E-09
34.73542	8.65867E-09
34.90823	8.63922E-09
35.08104	8.61970E-09
35.25386	8.60012E-09
35.42667	8.58054E-09
35.59948	8.56099E-09
35.77230	8.54155E-09
35.94511	8.52225E-09
36.11792	8.50318E-09
36.29073	8.48436E-09
36.46355	8.46583E-09
36.63636	8.44767E-09
36.80917	8.42984E-09
36.98199	8.41248E-09
37.15480	8.39553E-09
37.32761	8.37906E-09
37.50043	8.36313E-09
37.67324	8.34775E-09
37.84605	8.33293E-09
38.01886	8.31870E-09
38.19168	8.30510E-09
38.36449	8.29213E-09
38.53730	8.27979E-09
38.71012	8.26812E-09
38.88293	8.25712E-09
39.05574	8.24679E-09
39.22856	8.23715E-09
39.40137	8.22819E-09
39.57418	8.21991E-09
39.74699	8.21230E-09
39.91981	8.20537E-09
40.09262	8.19915E-09
40.26543	8.19354E-09
40.43825	8.18858E-09
40.61106	8.18427E-09
40.78387	8.18062E-09
40.95669	8.17751E-09
41.12950	8.17502E-09
41.30231	8.17310E-09
41.47513	8.17174E-09
41.64794	8.17089E-09
41.82075	8.17053E-09
41.99356	8.17063E-09
42.16638	8.17120E-09
42.33919	8.17217E-09
42.51200	8.17352E-09
42.68482	8.17526E-09
42.85763	8.17730E-09
43.03044	8.17962E-09
43.20326	8.18226E-09
43.37607	8.18510E-09
43.54888	8.18814E-09
43.72169	8.19135E-09
43.89451	8.19467E-09
44.06732	8.19814E-09
44.24013	8.20165E-09
44.41295	8.20526E-09
44.58576	8.20887E-09
44.75857	8.21245E-09
44.93139	8.21602E-09
45.10420	8.21951E-09
45.27701	8.22292E-09
45.44982	8.22617E-09
45.62264	8.22936E-09
45.79545	8.23232E-09
45.96826	8.23517E-09
46.14108	8.23780E-09
46.31389	8.24021E-09
46.48670	8.24235E-09
46.65952	8.24433E-09
46.83233	8.24598E-09
47.00514	8.24742E-09
47.17795	8.24854E-09
47.35077	8.24944E-09
47.52358	8.25002E-09
47.69639	8.25034E-09
47.86921	8.25033E-09
48.04202	8.25010E-09
48.21483	8.24954E-09
48.38765	8.24866E-09
48.56046	8.24757E-09
48.73327	8.24621E-09
48.90608	8.24461E-09
49.07890	8.24271E-09
49.25171	8.24061E-09
49.42452	8.23826E-09
49.59734	8.23573E-09
49.77015	8.23298E-09
49.94296	8.23005E-09
50.11578	8.22695E-09
50.28859	8.22369E-09
50.46140	8.22034E-09
50.63422	8.21681E-09
50.80703	8.21321E-09
50.97984	8.20955E-09
51.15265	8.20580E-09
51.32547	8.20203E-09
51.49828	8.19825E-09
51.67109	8.19443E-09
51.84391	8.19067E-09
52.01672	8.18688E-09
52.18953	8.18321E-09
52.36235	8.17956E-09
52.53516	8.17602E-09
52.70797	8.17258E-09
52.88078	8.16921E-09
53.05360	8.16603E-09
53.22641	8.16298E-09
53.39922	8.16006E-09
53.57204	8.15736E-09
53.74485	8.15479E-09
53.91766	8.15246E-09
54.09048	8.15030E-09
54.26329	8.14838E-09
54.43610	8.14663E-09
54.60891	8.14516E-09
54.78173	8.14392E-09
54.95454	8.14287E-09
55.12735	8.14209E-09
55.30017	8.14154E-09
55.47298	8.14122E-09
55.64579	8.14120E-09
55.81861	8.14135E-09
55.99142	8.14179E-09
56.16423	8.14241E-09
56.33704	8.14332E-09
56.50986	8.14440E-09
56.68267	8.14573E-09
56.85548	8.14726E-09
57.02830	8.14901E-09
57.20111	8.15090E-09
57.37392	8.15303E-09
57.54674	8.15530E-09
57.71955	8.15776E-09
57.89236	8.16032E-09
58.06517	8.16306E-09
58.23799	8.16588E-09
58.41080	8.16881E-09
58.58361	8.17188E-09
58.75643	8.17499E-09
58.92924	8.17819E-09
59.10205	8.18139E-09
59.27487	8.18467E-09
59.44768	8.18795E-09
59.62049	8.19126E-09
59.79331	8.19454E-09
59.96612	8.19779E-09
60.13893	8.20103E-09
60.31174	8.20417E-09
60.48456	8.20729E-09
60.65737	8.21029E-09
60.83018	8.21323E-09
61.00300	8.21603E-09
61.17581	8.21874E-09
61.34862	8.22135E-09
61.52144	8.22379E-09
61.69425	8.22606E-09
61.86706	8.22821E-09
62.03987	8.23019E-09
62.21269	8.23200E-09
62.38550	8.23364E-09
62.55831	8.23511E-09
62.73113	8.23640E-09
62.90394	8.23747E-09
63.07675	8.23837E-09
63.24957	8.23910E-09
63.42238	8.23965E-09
63.59519	8.24003E-09
63.76800	8.24018E-09
63.94082	8.24014E-09
64.11363	8.23994E-09
64.28644	8.23959E-09
64.45926	8.23902E-09
64.63207	8.23832E-09
64.80488	8.23745E-09
64.97770	8.23641E-09
65.15051	8.23529E-09
65.32332	8.23400E-09
65.49613	8.23256E-09
65.66895	8.23106E-09
65.84176	8.22944E-09
66.01457	8.22768E-09
66.18739	8.22591E-09
66.36020	8.22399E-09
66.53301	8.22201E-09
66.70583	8.22001E-09
66.87864	8.21799E-09
67.05145	8.21589E-09
67.22426	8.21375E-09
67.39708	8.21166E-09
67.56989	8.20955E-09
67.74270	8.20741E-09
67.91552	8.20530E-09
68.08833	8.20325E-09
68.26114	8.20118E-09
68.43396	8.19921E-09
68.60677	8.19724E-09
68.77958	8.19537E-09
68.95240	8.19352E-09
69.12521	8.19174E-09
69.29802	8.19010E-09
69.47083	8.18849E-09
69.64365	8.18701E-09
69.81646	8.18560E-09
69.98927	8.18434E-09
70.16209	8.18310E-09
70.33490	8.18204E-09
70.50771	8.18101E-09
70.68053	8.18016E-09
70.85334	8.17939E-09
71.02615	8.17869E-09
71.19896	8.17813E-09
71.37178	8.17769E-09
71.54459	8.17728E-09
71.71740	8.17705E-09
71.89022	8.17685E-09
72.06303	8.17678E-09
72.23584	8.17684E-09
72.40866	8.17692E-09
72.58147	8.17708E-09
72.75428	8.17731E-09
72.92709	8.17760E-09
73.09991	8.17792E-09
73.27272	8.17832E-09
73.44553	8.17874E-09
73.61835	8.17923E-09
73.79116	8.17968E-09
73.96397	8.18016E-09
74.13679	8.18068E-09
74.30960	8.18120E-09
74.48241	8.18172E-09
74.65522	8.18219E-09
74.82804	8.18263E-09
75.00085	8.18304E-09
75.17366	8.18341E-09
75.34648	8.18369E-09
75.51929	8.18395E-09
75.69210	8.18412E-09
75.86492	8.18419E-09
76.03773	8.18417E-09
76.21054	8.18408E-09
76.38335	8.18389E-09
76.55617	8.18357E-09
76.72898	8.18315E-09
76.90179	8.18259E-09
77.07461	8.18190E-09
77.24742	8.18112E-09
77.42023	8.18018E-09
77.59305	8.17912E-09
77.76586	8.17791E-09
77.93867	8.17656E-09
78.11149	8.17508E-09
78.28430	8.17343E-09
78.45711	8.17165E-09
78.62992	8.16973E-09
78.80274	8.16765E-09
78.97555	8.16543E-09
79.14836	8.16313E-09
79.32118	8.16063E-09
79.49399	8.15804E-09
79.66680	8.15529E-09
79.83962	8.15240E-09
80.01243	8.14940E-09
80.18524	8.14629E-09
80.35805	8.14308E-09
80.53087	8.13978E-09
80.70368	8.13634E-09
80.87649	8.13284E-09
81.04931	8.12926E-09
81.22212	8.12560E-09
81.39493	8.12184E-09
81.56775	8.11804E-09
81.74056	8.11415E-09
81.91337	8.11022E-09
82.08618	8.10624E-09
82.25900	8.10222E-09
82.43181	8.09822E-09
82.60462	8.09413E-09
82.77744	8.09004E-09
82.95025	8.08598E-09
83.12306	8.08189E-09
83.29588	8.07781E-09
83.46869	8.07374E-09
83.64150	8.06970E-09
83.81431	8.06565E-09
83.98713	8.06163E-09
84.15994	8.05767E-09
84.33275	8.05371E-09
84.50557	8.04978E-09
84.67838	8.04590E-09
84.85119	8.04209E-09
85.02401	8.03829E-09
85.19682	8.03450E-09
85.36963	8.03084E-09
85.54244	8.02718E-09
85.71526	8.02358E-09
85.88807	8.02000E-09
86.06088	8.01648E-09
86.23370	8.01301E-09
86.40651	8.00961E-09
86.57932	8.00623E-09
86.75214	8.00290E-09
86.92495	7.99957E-09
87.09776	7.99632E-09
87.27058	7.99314E-09
87.44339	7.98990E-09
87.61620	7.98673E-09
87.78901	7.98358E-09
87.96183	7.98043E-09
88.13464	7.97735E-09
88.30745	7.97421E-09
88.48027	7.97110E-09
88.65308	7.96793E-09
88.82589	7.96483E-09
88.99871	7.96163E-09
89.17152	7.95845E-09
89.34433	7.95525E-09
89.51714	7.95198E-09
89.68996	7.94865E-09
89.86277	7.94535E-09
90.03558	7.94195E-09
90.20840	7.93845E-09
90.38121	7.93492E-09
90.55402	7.93133E-09
90.72684	7.92765E-09
90.89965	7.92389E-09
91.07246	7.92002E-09
91.24527	7.91612E-09
91.41809	7.91206E-09
91.59090	7.90791E-09
91.76371	7.90367E-09
91.93653	7.89934E-09
92.10934	7.89486E-09
92.28215	7.89029E-09
92.45497	7.88562E-09
92.62778	7.88081E-09
92.80059	7.87591E-09
92.97340	7.87087E-09
93.14622	7.86573E-09
93.31903	7.86046E-09
93.49184	7.85509E-09
93.66466	7.84959E-09
93.83747	7.84397E-09
94.01028	7.83829E-09
94.18310	7.83250E-09
94.35591	7.82658E-09
94.52872	7.82057E-09
94.70153	7.81447E-09
94.87435	7.80828E-09
95.04716	7.80199E-09
95.21997	7.79561E-09
95.39279	7.78921E-09
95.56560	7.78271E-09
95.73841	7.77619E-09
95.91123	7.76957E-09
96.08404	7.76291E-09
96.25685	7.75621E-09
96.42967	7.74947E-09
96.60248	7.74274E-09
96.77529	7.73599E-09
96.94810	7.72920E-09
97.12092	7.72242E-09
97.29373	7.71565E-09
97.46654	7.70890E-09
97.63936	7.70215E-09
97.81217	7.69547E-09
97.98498	7.68874E-09
98.15780	7.68214E-09
98.33061	7.67556E-09
98.50342	7.66903E-09
98.67623	7.66252E-09
98.84905	7.65610E-09
99.02186	7.64980E-09
99.19467	7.64352E-09
99.36749	7.63734E-09
99.54030	7.63122E-09
99.71311	7.62521E-09
99.88593	7.61930E-09
100.05874	7.61349E-09
100.23155	7.60773E-09
100.40436	7.60208E-09
100.57718	7.59658E-09
100.74999	7.59113E-09
100.92280	7.58580E-09
101.09562	7.58061E-09
101.26843	7.57547E-09
101.44124	7.57045E-09
101.61406	7.56557E-09
101.78687	7.56081E-09
101.95968	7.55607E-09
102.13249	7.55150E-09
102.30531	7.54698E-09
102.47812	7.54260E-09
102.65093	7.53829E-09
102.82375	7.53407E-09
102.99656	7.52994E-09
103.16937	7.52587E-09
103.34219	7.52190E-09
103.51500	7.51802E-09
103.68781	7.51416E-09
103.86062	7.51038E-09
104.03344	7.50666E-09
104.20625	7.50304E-09
104.37906	7.49944E-09
104.55188	7.49582E-09
104.72469	7.49231E-09
104.89750	7.48881E-09
105.07032	7.48530E-09
105.24313	7.48184E-09
105.41594	7.47833E-09
105.58876	7.47488E-09
105.76157	7.47143E-09
105.93438	7.46794E-09
106.10719	7.46446E-09
106.28001	7.46097E-09
106.45282	7.45744E-09
106.62563	7.45388E-09
106.79845	7.45028E-09
106.97126	7.44667E-09
107.14407	7.44298E-09
107.31689	7.43928E-09
107.48970	7.43551E-09
107.66251	7.43164E-09
107.83532	7.42776E-09
108.00814	7.42381E-09
108.18095	7.41978E-09
108.35376	7.41568E-09
108.52658	7.41156E-09
108.69939	7.40731E-09
108.87220	7.40302E-09
109.04502	7.39868E-09
109.21783	7.39426E-09
109.39064	7.38975E-09
109.56345	7.38517E-09
109.73627	7.38053E-09
109.90908	7.37582E-09
110.08189	7.37107E-09
110.25471	7.36623E-09
110.42752	7.36130E-09
110.60033	7.35633E-09
110.77315	7.35133E-09
110.94596	7.34627E-09
111.11877	7.34113E-09
111.29158	7.33599E-09
111.46440	7.33079E-09
111.63721	7.32552E-09
111.81002	7.32028E-09
111.98284	7.31500E-09
112.15565	7.30966E-09
112.32846	7.30434E-09
112.50128	7.29903E-09
112.67409	7.29372E-09
112.84690	7.28838E-09
113.01972	7.28309E-09
113.19253	7.27781E-09
113.36534	7.27255E-09
113.53815	7.26728E-09
113.71097	7.26211E-09
113.88378	7.25696E-09
114.05659	7.25185E-09
114.22941	7.24680E-09
114.40222	7.24182E-09
114.57503	7.23691E-09
114.74785	7.23206E-09
114.92066	7.22726E-09
115.09347	7.22256E-09
115.26628	7.21794E-09
115.43910	7.21342E-09
115.61191	7.20900E-09
115.78472	7.20466E-09
115.95754	7.20043E-09
116.13035	7.19632E-09
116.30316	7.19230E-09
116.47598	7.18837E-09
116.64879	7.18458E-09
116.82160	7.18088E-09
116.99441	7.17732E-09
117.16723	7.17389E-09
117.34004	7.17061E-09
117.51285	7.16741E-09
117.68567	7.16435E-09
117.85848	7.16141E-09
118.03129	7.15861E-09
118.20411	7.15596E-09
118.37692	7.15343E-09
118.54973	7.15102E-09
118.72254	7.14870E-09
118.89536	7.14656E-09
119.06817	7.14453E-09
119.24098	7.14265E-09
119.41380	7.14087E-09
119.58661	7.13921E-09
119.75942	7.13770E-09
119.93224	7.13629E-09
120.10505	7.13504E-09
120.27786	7.13388E-09
120.45067	7.13284E-09
120.62349	7.13190E-09
120.79630	7.13110E-09
120.96911	7.13042E-09
121.14193	7.12983E-09
121.31474	7.12938E-09
121.48755	7.12901E-09
121.66037	7.12873E-09
121.83318	7.12859E-09
122.00599	7.12856E-09
122.17881	7.12859E-09
122.35162	7.12878E-09
122.52443	7.12903E-09
122.69724	7.12938E-09
122.87006	7.12982E-09
123.04287	7.13035E-09
123.21568	7.13097E-09
123.38850	7.13173E-09
123.56131	7.13253E-09
123.73412	7.13342E-09
123.90694	7.13445E-09
124.07975	7.13552E-09
124.25256	7.13674E-09
124.42537	7.13799E-09
124.59819	7.13934E-09
124.77100	7.14082E-09
124.94381	7.14236E-09
125.11663	7.14403E-09
125.28944	7.14579E-09
125.46225	7.14765E-09
125.63507	7.14956E-09
125.80788	7.15164E-09
125.98069	7.15378E-09
126.15350	7.15601E-09
126.32632	7.15838E-09
126.49913	7.16085E-09
126.67194	7.16345E-09
126.84476	7.16615E-09
127.01757	7.16896E-09
127.19038	7.17190E-09
127.36320	7.17498E-09
127.53601	7.17816E-09
127.70882	7.18148E-09
127.88163	7.18490E-09
128.05445	7.18851E-09
128.22726	7.19221E-09
128.40007	7.19604E-09
128.57289	7.20000E-09
128.74570	7.20414E-09
128.91851	7.20843E-09
129.09133	7.21286E-09
129.26414	7.21744E-09
129.43695	7.22216E-09
129.60976	7.22703E-09
129.78258	7.23203E-09
129.95539	7.23719E-09
130.12820	7.24251E-09
130.30102	7.24800E-09
130.47383	7.25360E-09
130.64664	7.25941E-09
130.81946	7.26536E-09
130.99227	7.27142E-09
131.16508	7.27768E-09
131.33790	7.28410E-09
131.51071	7.29068E-09
131.68352	7.29738E-09
131.85633	7.30428E-09
132.02915	7.31130E-09
132.20196	7.31846E-09
132.37477	7.32579E-09
132.54759	7.33325E-09
132.72040	7.34087E-09
132.89321	7.34860E-09
133.06603	7.35644E-09
133.23884	7.36441E-09
133.41165	7.37256E-09
133.58446	7.38078E-09
133.75728	7.38912E-09
133.93009	7.39757E-09
134.10290	7.40616E-09
134.27572	7.41481E-09
134.44853	7.42355E-09
134.62134	7.43236E-09
134.79416	7.44130E-09
134.96697	7.45027E-09
135.13978	7.45933E-09
135.31259	7.46846E-09
135.48541	7.47762E-09
135.65822	7.48684E-09
135.83103	7.49614E-09
136.00385	7.50542E-09
136.17666	7.51478E-09
136.34947	7.52412E-09
136.52229	7.53350E-09
136.69510	7.54284E-09
136.86791	7.55225E-09
137.04072	7.56162E-09
137.21354	7.57099E-09
137.38635	7.58040E-09
137.55916	7.58974E-09
137.73198	7.59908E-09
137.90479	7.60841E-09
138.07760	7.61768E-09
138.25042	7.62693E-09
138.42323	7.63616E-09
138.59604	7.64532E-09
138.76885	7.65442E-09
138.94167	7.66350E-09
139.11448	7.67251E-09
139.28729	7.68152E-09
139.46011	7.69045E-09
139.63292	7.69931E-09
139.80573	7.70810E-09
139.97855	7.71688E-09
140.15136	7.72558E-09
140.32417	7.73421E-09
140.49699	7.74280E-09
140.66980	7.75133E-09
140.84261	7.75979E-09
141.01542	7.76824E-09
141.18824	7.77666E-09
141.36105	7.78501E-09
141.53386	7.79338E-09
141.70668	7.80169E-09
141.87949	7.80991E-09
142.05230	7.81818E-09
142.22512	7.82647E-09
142.39793	7.83468E-09
142.57074	7.84292E-09
142.74355	7.85114E-09
142.91637	7.85940E-09
143.08918	7.86762E-09
143.26199	7.87594E-09
143.43481	7.88428E-09
143.60762	7.89260E-09
143.78043	7.90102E-09
143.95325	7.90945E-09
144.12606	7.91798E-09
144.29887	7.92659E-09
144.47168	7.93522E-09
144.64450	7.94395E-09
144.81731	7.95281E-09
144.99012	7.96171E-09
145.16294	7.97075E-09
145.33575	7.97986E-09
145.50856	7.98913E-09
145.68138	7.99848E-09
145.85419	8.00798E-09
146.02700	8.01757E-09
146.19981	8.02733E-09
146.37263	8.03721E-09
146.54544	8.04729E-09
146.71825	8.05746E-09
146.89107	8.06784E-09
147.06388	8.07838E-09
147.23669	8.08907E-09
147.40951	8.09991E-09
147.58232	8.11089E-09
147.75513	8.12210E-09
147.92794	8.13346E-09
148.10076	8.14498E-09
148.27357	8.15665E-09
148.44638	8.16854E-09
148.61920	8.18053E-09
148.79201	8.19275E-09
148.96482	8.20513E-09
149.13764	8.21768E-09
149.31045	8.23032E-09
149.48326	8.24321E-09
149.65608	8.25626E-09
149.82889	8.26942E-09
150.00170	8.28267E-09
150.17451	8.29617E-09
150.34733	8.30972E-09
150.52014	8.32345E-09
150.69295	8.33735E-09
150.86577	8.35130E-09
151.03858	8.36538E-09
151.21139	8.37957E-09
151.38421	8.39387E-09
151.55702	8.40823E-09
151.72983	8.42271E-09
151.90264	8.43731E-09
152.07546	8.45193E-09
152.24827	8.46665E-09
152.42108	8.48136E-09
152.59390	8.49615E-09
152.76671	8.51099E-09
152.93952	8.52588E-09
153.11234	8.54077E-09
153.28515	8.55572E-09
153.45796	8.57065E-09
153.63077	8.58561E-09
153.80359	8.60057E-09
153.97640	8.61551E-09
154.14921	8.63045E-09
154.32203	8.64536E-09
154.49484	8.66022E-09
154.66765	8.67506E-09
154.84047	8.68991E-09
155.01328	8.70474E-09
155.18609	8.71951E-09
155.35890	8.73425E-09
155.53172	8.74891E-09
155.70453	8.76355E-09
155.87734	8.77812E-09
156.05016	8.79261E-09
156.22297	8.80716E-09
156.39578	8.82155E-09
156.56860	8.83600E-09
156.74141	8.85038E-09
156.91422	8.86467E-09
157.08703	8.87893E-09
157.25985	8.89317E-09
157.43266	8.90739E-09
157.60547	8.92159E-09
157.77829	8.93577E-09
157.95110	8.94988E-09
158.12391	8.96402E-09
158.29673	8.97821E-09
158.46954	8.99232E-09
158.64235	9.00646E-09
158.81517	9.02066E-09
158.98798	9.03483E-09
159.16079	9.04903E-09
159.33360	9.06328E-09
159.50642	9.07757E-09
159.67923	9.09192E-09
159.85204	9.10631E-09
160.02486	9.12081E-09
160.19767	9.13542E-09
160.37048	9.15001E-09
160.54330	9.16480E-09
160.71611	9.17963E-09
160.88892	9.19464E-09
161.06173	9.20970E-09
161.23455	9.22496E-09
161.40736	9.24034E-09
161.58017	9.25585E-09
161.75299	9.27148E-09
161.92580	9.28729E-09
162.09861	9.30324E-09
162.27143	9.31939E-09
162.44424	9.33575E-09
162.61705	9.35223E-09
162.78986	9.36892E-09
162.96268	9.38574E-09
163.13549	9.40284E-09
163.30830	9.42006E-09
163.48112	9.43741E-09
163.65393	9.45505E-09
163.82674	9.47283E-09
163.99956	9.49083E-09
164.17237	9.50896E-09
164.34518	9.52731E-09
164.51799	9.54580E-09
164.69081	9.56452E-09
164.86362	9.58341E-09
165.03643	9.60241E-09
165.20925	9.62163E-09
165.38206	9.64091E-09
165.55487	9.66044E-09
165.72769	9.68004E-09
165.90050	9.69978E-09
166.07331	9.71957E-09
166.24612	9.73955E-09
166.41894	9.75958E-09
166.59175	9.77967E-09
166.76456	9.79985E-09
166.93738	9.82011E-09
167.11019	9.84043E-09
167.28300	9.86075E-09
167.45582	9.88112E-09
167.62863	9.90140E-09
167.80144	9.92175E-09
167.97426	9.94201E-09
168.14707	9.96224E-09
168.31988	9.98239E-09
168.49269	1.00025E-08
168.66551	1.00225E-08
168.83832	1.00424E-08
169.01113	1.00622E-08
169.18395	1.00819E-08
169.35676	1.01014E-08
169.52957	1.01207E-08
169.70239	1.01399E-08
169.87520	1.01588E-08
170.04801	1.01776E-08
170.22082	1.01961E-08
170.39364	1.02145E-08
170.56645	1.02326E-08
170.73926	1.02505E-08
170.91208	1.02680E-08
171.08489	1.02853E-08
171.25770	1.03024E-08
171.43052	1.03191E-08
171.60333	1.03356E-08
171.77614	1.03518E-08
171.94895	1.03677E-08
172.12177	1.03833E-08
172.29458	1.03986E-08
172.46739	1.04136E-08
172.64021	1.04283E-08
172.81302	1.04427E-08
172.98583	1.04568E-08
173.15865	1.04706E-08
173.33146	1.04842E-08
173.50427	1.04975E-08
173.67708	1.05105E-08
173.84990	1.05233E-08
174.02271	1.05357E-08
174.19552	1.05481E-08
174.36834	1.05601E-08
174.54115	1.05719E-08
174.71396	1.05835E-08
174.88678	1.05949E-08
175.05959	1.06062E-08
175.23240	1.06172E-08
175.40521	1.06282E-08
175.57803	1.06391E-08
175.75084	1.06497E-08
175.92365	1.06603E-08
176.09647	1.06708E-08
176.26928	1.06813E-08
176.44209	1.06917E-08
176.61491	1.07021E-08
176.78772	1.07125E-08
176.96053	1.07228E-08
177.13335	1.07332E-08
177.30616	1.07437E-08
177.47897	1.07542E-08
177.65178	1.07648E-08
177.82460	1.07754E-08
177.99741	1.07862E-08
178.17022	1.07971E-08
178.34304	1.08081E-08
